Wavenumber,Intensity
650.4205,0.399190
651.3523,0.398268
652.2841,0.388871
653.2160,0.387457
654.1478,0.399865
655.0796,0.400134
656.0115,0.393349
656.9433,0.390493
657.8751,0.386559
658.8070,0.385830
659.7388,0.386695
660.6706,0.389877
661.6025,0.382995
662.5343,0.381325
663.4661,0.381583
664.3980,0.384178
665.3298,0.373396
666.2616,0.365747
667.1935,0.367170
668.1253,0.381826
669.0571,0.388127
669.9890,0.386140
670.9208,0.380885
671.8526,0.373022
672.7845,0.368293
673.7163,0.368451
674.6481,0.363952
675.5800,0.360950
676.5118,0.373204
677.4437,0.374527
678.3755,0.359112
679.3073,0.354961
680.2392,0.355901
681.1710,0.357813
682.1028,0.356530
683.0347,0.355123
683.9665,0.354390
684.8983,0.357392
685.8302,0.354657
686.7620,0.350004
687.6938,0.347034
688.6257,0.346747
689.5575,0.349684
690.4893,0.348869
691.4212,0.339629
692.3530,0.340581
693.2848,0.345532
694.2167,0.345716
695.1485,0.344229
696.0803,0.341479
697.0122,0.336805
697.9440,0.331581
698.8758,0.328229
699.8077,0.330203
700.7395,0.329448
701.6713,0.331665
702.6032,0.334630
703.5350,0.331265
704.4669,0.327637
705.3987,0.329809
706.3305,0.328840
707.2624,0.323439
708.1942,0.320745
709.1260,0.321211
710.0579,0.321583
710.9897,0.318803
711.9215,0.311685
712.8534,0.311745
713.7852,0.312440
714.7170,0.310858
715.6489,0.309734
716.5807,0.308162
717.5125,0.305104
718.4444,0.304033
719.3762,0.305280
720.3080,0.306385
721.2399,0.302666
722.1717,0.301951
723.1035,0.298558
724.0354,0.296272
724.9672,0.298917
725.8990,0.298017
726.8309,0.294704
727.7627,0.295030
728.6945,0.294053
729.6264,0.293150
730.5582,0.289097
731.4901,0.287318
732.4219,0.288375
733.3537,0.287687
734.2856,0.284276
735.2174,0.282681
736.1492,0.281732
737.0811,0.278402
738.0129,0.277065
738.9447,0.279184
739.8766,0.277560
740.8084,0.277539
741.7402,0.278153
742.6721,0.274780
743.6039,0.270625
744.5357,0.268730
745.4676,0.266963
746.3994,0.266963
747.3312,0.265616
748.2631,0.264375
749.1949,0.262542
750.1267,0.264038
751.0586,0.262841
751.9904,0.260225
752.9222,0.258550
753.8541,0.258533
754.7859,0.256233
755.7177,0.254313
756.6496,0.252010
757.5814,0.250901
758.5132,0.250479
759.4451,0.248020
760.3769,0.244943
761.3088,0.245194
762.2406,0.243615
763.1724,0.240749
764.1043,0.239575
765.0361,0.240996
765.9679,0.241184
766.8998,0.239346
767.8316,0.234765
768.7634,0.233869
769.6953,0.233488
770.6271,0.232978
771.5589,0.233282
772.4908,0.232609
773.4226,0.230882
774.3544,0.228092
775.2863,0.226425
776.2181,0.226615
777.1499,0.226331
778.0818,0.225787
779.0136,0.222504
779.9454,0.220090
780.8773,0.220044
781.8091,0.218464
782.7409,0.217167
783.6728,0.217718
784.6046,0.216035
785.5364,0.213594
786.4683,0.210915
787.4001,0.209710
788.3320,0.209871
789.2638,0.208708
790.1956,0.207374
791.1275,0.207038
792.0593,0.205714
792.9911,0.204890
793.9230,0.203081
794.8548,0.200630
795.7866,0.198185
796.7185,0.198224
797.6503,0.198125
798.5821,0.196679
799.5140,0.194000
800.4458,0.191759
801.3776,0.190330
802.3095,0.191686
803.2413,0.192191
804.1731,0.191106
805.1050,0.188221
806.0368,0.186404
806.9686,0.185485
807.9005,0.184133
808.8323,0.183468
809.7641,0.182085
810.6960,0.179260
811.6278,0.177343
812.5596,0.175750
813.4915,0.175161
814.4233,0.174630
815.3552,0.173424
816.2870,0.172348
817.2188,0.170374
818.1507,0.169694
819.0825,0.169366
820.0143,0.167822
820.9462,0.166369
821.8780,0.165358
822.8098,0.164578
823.7417,0.162317
824.6735,0.161949
825.6053,0.161621
826.5372,0.160385
827.4690,0.158920
828.4008,0.157258
829.3327,0.154922
830.2645,0.154269
831.1963,0.153805
832.1282,0.152233
833.0600,0.151277
833.9918,0.151367
834.9237,0.149887
835.8555,0.148260
836.7873,0.146825
837.7192,0.145634
838.6510,0.144981
839.5828,0.144387
840.5147,0.142982
841.4465,0.141797
842.3784,0.141091
843.3102,0.140388
844.2420,0.139120
845.1739,0.138150
846.1057,0.137476
847.0375,0.136606
847.9694,0.135243
848.9012,0.134527
849.8330,0.134139
850.7649,0.133988
851.6967,0.133110
852.6285,0.131667
853.5604,0.131414
854.4922,0.131385
855.4240,0.130711
856.3559,0.129939
857.2877,0.129191
858.2195,0.128268
859.1514,0.127109
860.0832,0.126108
861.0150,0.125200
861.9469,0.126116
862.8787,0.126375
863.8105,0.125443
864.7424,0.125334
865.6742,0.125901
866.6060,0.126427
867.5379,0.127181
868.4697,0.127895
869.4016,0.129702
870.3334,0.132435
871.2652,0.134622
872.1971,0.137195
873.1289,0.140928
874.0607,0.144997
874.9926,0.148386
875.9244,0.151236
876.8562,0.153778
877.7881,0.154721
878.7199,0.153549
879.6517,0.150136
880.5836,0.145790
881.5154,0.140616
882.4472,0.133940
883.3791,0.128047
884.3109,0.122778
885.2427,0.117495
886.1746,0.112830
887.1064,0.108802
888.0382,0.105650
888.9701,0.102969
889.9019,0.100538
890.8337,0.098386
891.7656,0.096267
892.6974,0.094766
893.6292,0.092919
894.5611,0.091285
895.4929,0.090349
896.4247,0.089417
897.3566,0.088595
898.2884,0.087912
899.2203,0.086625
900.1521,0.085265
901.0839,0.084806
902.0158,0.084790
902.9476,0.084217
903.8794,0.082998
904.8113,0.082439
905.7431,0.082283
906.6749,0.081553
907.6068,0.080866
908.5386,0.080617
909.4704,0.079806
910.4023,0.078879
911.3341,0.078350
912.2659,0.077431
913.1978,0.076893
914.1296,0.076838
915.0614,0.076563
915.9933,0.075626
916.9251,0.074662
917.8569,0.074251
918.7888,0.073898
919.7206,0.073533
920.6524,0.072805
921.5843,0.072271
922.5161,0.071929
923.4479,0.071839
924.3798,0.071052
925.3116,0.070060
926.2435,0.069851
927.1753,0.069889
928.1071,0.069400
929.0390,0.068791
929.9708,0.068344
930.9026,0.068159
931.8345,0.067533
932.7663,0.066957
933.6981,0.066869
934.6300,0.066397
935.5618,0.065702
936.4936,0.065281
937.4255,0.065239
938.3573,0.065070
939.2891,0.064711
940.2210,0.063911
941.1528,0.063435
942.0846,0.063420
943.0165,0.063099
943.9483,0.062521
944.8801,0.062199
945.8120,0.061985
946.7438,0.061766
947.6756,0.061960
948.6075,0.061912
949.5393,0.061561
950.4711,0.061173
951.4030,0.060700
952.3348,0.060298
953.2667,0.060136
954.1985,0.060270
955.1303,0.059828
956.0622,0.059372
956.9940,0.059291
957.9258,0.059012
958.8577,0.058605
959.7895,0.058446
960.7213,0.058328
961.6532,0.058338
962.5850,0.058220
963.5168,0.058019
964.4487,0.057764
965.3805,0.057631
966.3123,0.057420
967.2442,0.057328
968.1760,0.057198
969.1078,0.056725
970.0397,0.056661
970.9715,0.056861
971.9033,0.056579
972.8352,0.056341
973.7670,0.056365
974.6988,0.056152
975.6307,0.056021
976.5625,0.056181
977.4943,0.055807
978.4262,0.055480
979.3580,0.055672
980.2899,0.055760
981.2217,0.055225
982.1535,0.054897
983.0854,0.055076
984.0172,0.055094
984.9490,0.055028
985.8809,0.054977
986.8127,0.055020
987.7445,0.054919
988.6764,0.054762
989.6082,0.054874
990.5400,0.055096
991.4719,0.055052
992.4037,0.054950
993.3355,0.054929
994.2674,0.055051
995.1992,0.055277
996.1310,0.055087
997.0629,0.054948
997.9947,0.055089
998.9265,0.055127
999.8584,0.055146
1000.7902,0.055271
1001.7220,0.055515
1002.6539,0.055914
1003.5857,0.056144
1004.5175,0.056470
1005.4494,0.056683
1006.3812,0.056903
1007.3131,0.057293
1008.2449,0.057408
1009.1767,0.057657
1010.1086,0.057883
1011.0404,0.058330
1011.9722,0.058735
1012.9041,0.059093
1013.8359,0.059722
1014.7677,0.060483
1015.6996,0.060952
1016.6314,0.061448
1017.5632,0.062435
1018.4951,0.063574
1019.4269,0.064560
1020.3587,0.065545
1021.2906,0.066562
1022.2224,0.067892
1023.1542,0.069460
1024.0861,0.071147
1025.0179,0.073180
1025.9497,0.075344
1026.8816,0.077732
1027.8134,0.080227
1028.7452,0.083078
1029.6771,0.086496
1030.6089,0.090288
1031.5407,0.094697
1032.4726,0.100236
1033.4044,0.106537
1034.3362,0.113387
1035.2681,0.121229
1036.1999,0.130613
1037.1318,0.141211
1038.0636,0.152754
1038.9954,0.165066
1039.9273,0.177411
1040.8591,0.189283
1041.7909,0.199988
1042.7228,0.208507
1043.6546,0.213698
1044.5864,0.214802
1045.5183,0.211782
1046.4501,0.204906
1047.3819,0.195152
1048.3138,0.183199
1049.2456,0.169954
1050.1774,0.156141
1051.1093,0.142760
1052.0411,0.130175
1052.9729,0.118720
1053.9048,0.108669
1054.8366,0.099751
1055.7684,0.092191
1056.7003,0.085688
1057.6321,0.080190
1058.5639,0.076081
1059.4958,0.072782
1060.4276,0.070171
1061.3594,0.068288
1062.2913,0.066787
1063.2231,0.065766
1064.1550,0.065079
1065.0868,0.064433
1066.0186,0.064178
1066.9505,0.064351
1067.8823,0.064731
1068.8141,0.065346
1069.7460,0.066311
1070.6778,0.067295
1071.6096,0.068164
1072.5415,0.069612
1073.4733,0.071508
1074.4051,0.073435
1075.3370,0.075366
1076.2688,0.077453
1077.2006,0.079617
1078.1325,0.081890
1079.0643,0.084400
1079.9961,0.086857
1080.9280,0.089156
1081.8598,0.091169
1082.7916,0.092961
1083.7235,0.094378
1084.6553,0.095273
1085.5871,0.095758
1086.5190,0.095515
1087.4508,0.094319
1088.3826,0.092421
1089.3145,0.089998
1090.2463,0.086836
1091.1782,0.083219
1092.1100,0.080048
1093.0418,0.076967
1093.9737,0.073450
1094.9055,0.069989
1095.8373,0.066966
1096.7692,0.064283
1097.7010,0.061722
1098.6328,0.059634
1099.5647,0.057628
1100.4965,0.055732
1101.4283,0.054215
1102.3602,0.053012
1103.2920,0.052006
1104.2238,0.050995
1105.1557,0.049832
1106.0875,0.048803
1107.0193,0.048347
1107.9512,0.048187
1108.8830,0.047720
1109.8148,0.047205
1110.7467,0.046885
1111.6785,0.046551
1112.6103,0.046223
1113.5422,0.046125
1114.4740,0.046094
1115.4058,0.045961
1116.3377,0.045916
1117.2695,0.045849
1118.2014,0.045763
1119.1332,0.045908
1120.0650,0.045856
1120.9969,0.045508
1121.9287,0.045433
1122.8605,0.045488
1123.7924,0.045408
1124.7242,0.045475
1125.6560,0.045567
1126.5879,0.045491
1127.5197,0.045361
1128.4515,0.045178
1129.3834,0.045117
1130.3152,0.045227
1131.2470,0.045193
1132.1789,0.044744
1133.1107,0.044447
1134.0425,0.044580
1134.9744,0.044591
1135.9062,0.044390
1136.8380,0.044253
1137.7699,0.044258
1138.7017,0.044101
1139.6335,0.044003
1140.5654,0.044035
1141.4972,0.043991
1142.4290,0.044009
1143.3609,0.044241
1144.2927,0.044076
1145.2246,0.043609
1146.1564,0.043357
1147.0882,0.043354
1148.0201,0.043546
1148.9519,0.043758
1149.8837,0.043733
1150.8156,0.043580
1151.7474,0.043585
1152.6792,0.043790
1153.6111,0.043755
1154.5429,0.043536
1155.4747,0.043471
1156.4066,0.043541
1157.3384,0.043543
1158.2702,0.043467
1159.2021,0.043313
1160.1339,0.043110
1161.0657,0.043089
1161.9976,0.043140
1162.9294,0.042892
1163.8612,0.042472
1164.7931,0.042268
1165.7249,0.042234
1166.6567,0.042157
1167.5886,0.041998
1168.5204,0.041845
1169.4522,0.041724
1170.3841,0.041655
1171.3159,0.041724
1172.2477,0.041755
1173.1796,0.041536
1174.1114,0.041424
1175.0433,0.041575
1175.9751,0.041637
1176.9069,0.041591
1177.8388,0.041474
1178.7706,0.041275
1179.7024,0.041337
1180.6343,0.041457
1181.5661,0.041389
1182.4979,0.041255
1183.4298,0.041195
1184.3616,0.041373
1185.2934,0.041377
1186.2253,0.041265
1187.1571,0.041341
1188.0889,0.041391
1189.0208,0.041470
1189.9526,0.041552
1190.8844,0.041471
1191.8163,0.041470
1192.7481,0.041651
1193.6799,0.041736
1194.6118,0.041570
1195.5436,0.041411
1196.4754,0.041656
1197.4073,0.041832
1198.3391,0.041686
1199.2709,0.041732
1200.2028,0.041763
1201.1346,0.041622
1202.0665,0.041585
1202.9983,0.041741
1203.9301,0.041847
1204.8620,0.041745
1205.7938,0.041719
1206.7256,0.041852
1207.6575,0.041817
1208.5893,0.041747
1209.5211,0.041831
1210.4530,0.041725
1211.3848,0.041694
1212.3166,0.041981
1213.2485,0.042132
1214.1803,0.042053
1215.1121,0.041990
1216.0440,0.042078
1216.9758,0.042198
1217.9076,0.042190
1218.8395,0.042257
1219.7713,0.042453
1220.7031,0.042534
1221.6350,0.042375
1222.5668,0.042123
1223.4986,0.042029
1224.4305,0.042218
1225.3623,0.042491
1226.2941,0.042535
1227.2260,0.042420
1228.1578,0.042528
1229.0897,0.042813
1230.0215,0.042821
1230.9533,0.042643
1231.8852,0.042717
1232.8170,0.042949
1233.7488,0.043047
1234.6807,0.043016
1235.6125,0.043127
1236.5443,0.043232
1237.4762,0.043322
1238.4080,0.043513
1239.3398,0.043537
1240.2717,0.043469
1241.2035,0.043610
1242.1353,0.043875
1243.0672,0.044153
1243.9990,0.044379
1244.9308,0.044308
1245.8627,0.044108
1246.7945,0.044193
1247.7263,0.044434
1248.6582,0.044536
1249.5900,0.044617
1250.5218,0.044665
1251.4537,0.044788
1252.3855,0.045055
1253.3173,0.045252
1254.2492,0.045395
1255.1810,0.045740
1256.1129,0.046220
1257.0447,0.046462
1257.9765,0.046338
1258.9084,0.046491
1259.8402,0.047035
1260.7720,0.047444
1261.7039,0.047732
1262.6357,0.047990
1263.5675,0.048148
1264.4994,0.048444
1265.4312,0.049020
1266.3630,0.049758
1267.2949,0.050395
1268.2267,0.050738
1269.1585,0.051068
1270.0904,0.051579
1271.0222,0.051872
1271.9540,0.052079
1272.8859,0.052620
1273.8177,0.053012
1274.7495,0.052911
1275.6814,0.052690
1276.6132,0.052584
1277.5450,0.052284
1278.4769,0.051879
1279.4087,0.051582
1280.3405,0.051225
1281.2724,0.050873
1282.2042,0.050730
1283.1361,0.050357
1284.0679,0.050103
1284.9997,0.050159
1285.9316,0.049790
1286.8634,0.049351
1287.7952,0.049349
1288.7271,0.049614
1289.6589,0.049815
1290.5907,0.049685
1291.5226,0.049533
1292.4544,0.049783
1293.3862,0.049968
1294.3181,0.049866
1295.2499,0.049932
1296.1817,0.049970
1297.1136,0.050042
1298.0454,0.050412
1298.9772,0.050709
1299.9091,0.050615
1300.8409,0.050497
1301.7727,0.050788
1302.7046,0.051195
1303.6364,0.051308
1304.5682,0.051500
1305.5001,0.051872
1306.4319,0.052048
1307.3637,0.052362
1308.2956,0.052596
1309.2274,0.052810
1310.1592,0.053012
1311.0911,0.053209
1312.0229,0.053588
1312.9548,0.053798
1313.8866,0.053642
1314.8184,0.053608
1315.7503,0.053805
1316.6821,0.054115
1317.6139,0.054404
1318.5458,0.054513
1319.4776,0.054721
1320.4094,0.055018
1321.3413,0.055124
1322.2731,0.054961
1323.2049,0.054767
1324.1368,0.054879
1325.0686,0.055057
1326.0004,0.054979
1326.9323,0.054947
1327.8641,0.054906
1328.7959,0.054842
1329.7278,0.054878
1330.6596,0.054888
1331.5914,0.054524
1332.5233,0.054192
1333.4551,0.054065
1334.3869,0.053851
1335.3188,0.053651
1336.2506,0.053325
1337.1824,0.053187
1338.1143,0.053274
1339.0461,0.053322
1339.9780,0.053486
1340.9098,0.053440
1341.8416,0.052904
1342.7735,0.052244
1343.7053,0.051699
1344.6371,0.051246
1345.5690,0.050819
1346.5008,0.050448
1347.4326,0.050377
1348.3645,0.050372
1349.2963,0.050258
1350.2281,0.050117
1351.1600,0.049975
1352.0918,0.049758
1353.0236,0.049347
1353.9555,0.049103
1354.8873,0.049228
1355.8191,0.049592
1356.7510,0.049536
1357.6828,0.049048
1358.6146,0.048860
1359.5465,0.048996
1360.4783,0.049069
1361.4101,0.049273
1362.3420,0.049664
1363.2738,0.050312
1364.2056,0.051083
1365.1375,0.050857
1366.0693,0.050286
1367.0012,0.050250
1367.9330,0.050683
1368.8648,0.051361
1369.7967,0.052145
1370.7285,0.052546
1371.6603,0.052973
1372.5922,0.053816
1373.5240,0.055128
1374.4558,0.057122
1375.3877,0.058731
1376.3195,0.059141
1377.2513,0.059297
1378.1832,0.059928
1379.1150,0.060788
1380.0468,0.061412
1380.9787,0.061582
1381.9105,0.061742
1382.8423,0.062088
1383.7742,0.062337
1384.7060,0.062435
1385.6378,0.062438
1386.5697,0.062558
1387.5015,0.063256
1388.4333,0.063974
1389.3652,0.063092
1390.2970,0.061709
1391.2288,0.060823
1392.1607,0.060216
1393.0925,0.059824
1394.0244,0.059535
1394.9562,0.059674
1395.8880,0.060534
1396.8199,0.060854
1397.7517,0.060233
1398.6835,0.060181
1399.6154,0.061126
1400.5472,0.061339
1401.4790,0.060631
1402.4109,0.060050
1403.3427,0.060135
1404.2745,0.060579
1405.2064,0.061111
1406.1382,0.061868
1407.0700,0.061700
1408.0019,0.061099
1408.9337,0.061157
1409.8655,0.061537
1410.7974,0.062010
1411.7292,0.062101
1412.6610,0.061891
1413.5929,0.061891
1414.5247,0.061613
1415.4565,0.061061
1416.3884,0.060877
1417.3202,0.061445
1418.2520,0.061969
1419.1839,0.062524
1420.1157,0.064071
1421.0476,0.063930
1421.9794,0.062258
1422.9112,0.061247
1423.8431,0.061095
1424.7749,0.061423
1425.7067,0.061056
1426.6386,0.060140
1427.5704,0.059536
1428.5022,0.058977
1429.4341,0.058594
1430.3659,0.058627
1431.2977,0.058514
1432.2296,0.057861
1433.1614,0.057012
1434.0932,0.056223
1435.0251,0.055611
1435.9569,0.055588
1436.8887,0.056440
1437.8206,0.058000
1438.7524,0.057216
1439.6842,0.055463
1440.6161,0.054959
1441.5479,0.055067
1442.4797,0.055050
1443.4116,0.055096
1444.3434,0.055172
1445.2752,0.055317
1446.2071,0.055876
1447.1389,0.056840
1448.0707,0.057944
1449.0026,0.059277
1449.9344,0.059990
1450.8663,0.059658
1451.7981,0.059782
1452.7299,0.060308
1453.6618,0.060043
1454.5936,0.059388
1455.5254,0.058958
1456.4573,0.059388
1457.3891,0.060167
1458.3209,0.060077
1459.2528,0.058635
1460.1846,0.056780
1461.1164,0.054339
1462.0483,0.052373
1462.9801,0.051376
1463.9119,0.050541
1464.8438,0.050014
1465.7756,0.049842
1466.7074,0.049236
1467.6393,0.048174
1468.5711,0.047176
1469.5029,0.046506
1470.4348,0.046003
1471.3666,0.045807
1472.2984,0.046264
1473.2303,0.047545
1474.1621,0.048846
1475.0939,0.048185
1476.0258,0.047400
1476.9576,0.047515
1477.8895,0.047821
1478.8213,0.047368
1479.7531,0.046866
1480.6850,0.047172
1481.6168,0.047690
1482.5486,0.047859
1483.4805,0.047800
1484.4123,0.047739
1485.3441,0.047319
1486.2760,0.046694
1487.2078,0.046494
1488.1396,0.046703
1489.0715,0.046862
1490.0033,0.047286
1490.9351,0.047945
1491.8670,0.047612
1492.7988,0.045857
1493.7306,0.044481
1494.6625,0.043634
1495.5943,0.043378
1496.5261,0.043778
1497.4580,0.044719
1498.3898,0.044440
1499.3216,0.043978
1500.2535,0.044534
1501.1853,0.043748
1502.1171,0.042884
1503.0490,0.043060
1503.9808,0.042677
1504.9127,0.042192
1505.8445,0.042524
1506.7763,0.044627
1507.7082,0.047001
1508.6400,0.046594
1509.5718,0.045964
1510.5037,0.045134
1511.4355,0.044008
1512.3673,0.043307
1513.2992,0.043579
1514.2310,0.043709
1515.1628,0.043109
1516.0947,0.043041
1517.0265,0.043449
1517.9583,0.044346
1518.8902,0.044412
1519.8220,0.043646
1520.7538,0.043484
1521.6857,0.044893
1522.6175,0.046471
1523.5493,0.045247
1524.4812,0.044455
1525.4130,0.044306
1526.3448,0.045214
1527.2767,0.046076
1528.2085,0.045537
1529.1403,0.045614
1530.0722,0.045288
1531.0040,0.044371
1531.9359,0.044398
1532.8677,0.045194
1533.7995,0.046179
1534.7314,0.046816
1535.6632,0.045945
1536.5950,0.044765
1537.5269,0.044641
1538.4587,0.044660
1539.3905,0.045264
1540.3224,0.047339
1541.2542,0.048418
1542.1860,0.047656
1543.1179,0.048167
1544.0497,0.048252
1544.9815,0.047331
1545.9134,0.047418
1546.8452,0.047818
1547.7770,0.047737
1548.7089,0.047459
1549.6407,0.047711
1550.5725,0.048462
1551.5044,0.049125
1552.4362,0.048746
1553.3680,0.048178
1554.2999,0.048279
1555.2317,0.048753
1556.1635,0.048918
1557.0954,0.047927
1558.0272,0.047873
1558.9591,0.052045
1559.8909,0.057706
1560.8227,0.058087
1561.7546,0.054952
1562.6864,0.052332
1563.6182,0.051605
1564.5501,0.051708
1565.4819,0.052253
1566.4137,0.052862
1567.3456,0.052514
1568.2774,0.052648
1569.2092,0.053407
1570.1411,0.055337
1571.0729,0.057370
1572.0047,0.056378
1572.9366,0.055407
1573.8684,0.055642
1574.8002,0.056027
1575.7321,0.057040
1576.6639,0.059923
1577.5957,0.062570
1578.5276,0.061726
1579.4594,0.060545
1580.3912,0.060755
1581.3231,0.061373
1582.2549,0.061865
1583.1867,0.062746
1584.1186,0.063540
1585.0504,0.064087
1585.9822,0.064937
1586.9141,0.065799
1587.8459,0.066502
1588.7778,0.067267
1589.7096,0.068170
1590.6414,0.069320
1591.5733,0.070209
1592.5051,0.071082
1593.4369,0.072253
1594.3688,0.073552
1595.3006,0.075024
1596.2324,0.076591
1597.1643,0.077792
