Wavenumber,Intensity
650.4205,0.396712
651.3523,0.380669
652.2841,0.377958
653.2160,0.389455
654.1478,0.399698
655.0796,0.399275
656.0115,0.390817
656.9433,0.386046
657.8751,0.379935
658.8070,0.372379
659.7388,0.369938
660.6706,0.382151
661.6025,0.385879
662.5343,0.376885
663.4661,0.372418
664.3980,0.373577
665.3298,0.369861
666.2616,0.366950
667.1935,0.361360
668.1253,0.366887
669.0571,0.386401
669.9890,0.382981
670.9208,0.374671
671.8526,0.373410
672.7845,0.371666
673.7163,0.366675
674.6481,0.362115
675.5800,0.365411
676.5118,0.362528
677.4437,0.357718
678.3755,0.359740
679.3073,0.365708
680.2392,0.360034
681.1710,0.355441
682.1028,0.352570
683.0347,0.350256
683.9665,0.349085
684.8983,0.350103
685.8302,0.347396
686.7620,0.347655
687.6938,0.345358
688.6257,0.344087
689.5575,0.343468
690.4893,0.341143
691.4212,0.340754
692.3530,0.339548
693.2848,0.335096
694.2167,0.335074
695.1485,0.336037
696.0803,0.339072
697.0122,0.343515
697.9440,0.338151
698.8758,0.327228
699.8077,0.325396
700.7395,0.323663
701.6713,0.322135
702.6032,0.322382
703.5350,0.323167
704.4669,0.325114
705.3987,0.324178
706.3305,0.318844
707.2624,0.317253
708.1942,0.315643
709.1260,0.313569
710.0579,0.310612
710.9897,0.311662
711.9215,0.311258
712.8534,0.311759
713.7852,0.310704
714.7170,0.309629
715.6489,0.310096
716.5807,0.309618
717.5125,0.306880
718.4444,0.305353
719.3762,0.302358
720.3080,0.299947
721.2399,0.299426
722.1717,0.299516
723.1035,0.296225
724.0354,0.293902
724.9672,0.293849
725.8990,0.294032
726.8309,0.292961
727.7627,0.290988
728.6945,0.291028
729.6264,0.292918
730.5582,0.289016
731.4901,0.285956
732.4219,0.285560
733.3537,0.285157
734.2856,0.285346
735.2174,0.285090
736.1492,0.280937
737.0811,0.277635
738.0129,0.273841
738.9447,0.275462
739.8766,0.275936
740.8084,0.272067
741.7402,0.268291
742.6721,0.268373
743.6039,0.268694
744.5357,0.267959
745.4676,0.267922
746.3994,0.267362
747.3312,0.262765
748.2631,0.261412
749.1949,0.261981
750.1267,0.261075
751.0586,0.257921
751.9904,0.256354
752.9222,0.256180
753.8541,0.254365
754.7859,0.253778
755.7177,0.252524
756.6496,0.249079
757.5814,0.247239
758.5132,0.246541
759.4451,0.245906
760.3769,0.244117
761.3088,0.243111
762.2406,0.242787
763.1724,0.242619
764.1043,0.240869
765.0361,0.240275
765.9679,0.239287
766.8998,0.235918
767.8316,0.232861
768.7634,0.231375
769.6953,0.230344
770.6271,0.229496
771.5589,0.227857
772.4908,0.226843
773.4226,0.227187
774.3544,0.227258
775.2863,0.225595
776.2181,0.223585
777.1499,0.222556
778.0818,0.222589
779.0136,0.220583
779.9454,0.218894
780.8773,0.216593
781.8091,0.213649
782.7409,0.213008
783.6728,0.213262
784.6046,0.211574
785.5364,0.210604
786.4683,0.209989
787.4001,0.207836
788.3320,0.206288
789.2638,0.206292
790.1956,0.206109
791.1275,0.205266
792.0593,0.202388
792.9911,0.199071
793.9230,0.198675
794.8548,0.199316
795.7866,0.198861
796.7185,0.197650
797.6503,0.196716
798.5821,0.195748
799.5140,0.194054
800.4458,0.192545
801.3776,0.191082
802.3095,0.190502
803.2413,0.190194
804.1731,0.189204
805.1050,0.186739
806.0368,0.185509
806.9686,0.184849
807.9005,0.183323
808.8323,0.182183
809.7641,0.180782
810.6960,0.178574
811.6278,0.177131
812.5596,0.176104
813.4915,0.174320
814.4233,0.172327
815.3552,0.171280
816.2870,0.169131
817.2188,0.168267
818.1507,0.167205
819.0825,0.165990
820.0143,0.165424
820.9462,0.164322
821.8780,0.162636
822.8098,0.161612
823.7417,0.161594
824.6735,0.161230
825.6053,0.160343
826.5372,0.158781
827.4690,0.156708
828.4008,0.155180
829.3327,0.153665
830.2645,0.153004
831.1963,0.152212
832.1282,0.151041
833.0600,0.149932
833.9918,0.148486
834.9237,0.147772
835.8555,0.147509
836.7873,0.145646
837.7192,0.144477
838.6510,0.144274
839.5828,0.143081
840.5147,0.141275
841.4465,0.141455
842.3784,0.140229
843.3102,0.139055
844.2420,0.138573
845.1739,0.137501
846.1057,0.136331
847.0375,0.135809
847.9694,0.135183
848.9012,0.134483
849.8330,0.133181
850.7649,0.132353
851.6967,0.131527
852.6285,0.130521
853.5604,0.129130
854.4922,0.128352
855.4240,0.128561
856.3559,0.127999
857.2877,0.126726
858.2195,0.126614
859.1514,0.126740
860.0832,0.125792
861.0150,0.124435
861.9469,0.125061
862.8787,0.125399
863.8105,0.124983
864.7424,0.124731
865.6742,0.124614
866.6060,0.125736
867.5379,0.127338
868.4697,0.128732
869.4016,0.130699
870.3334,0.132287
871.2652,0.134287
872.1971,0.137272
873.1289,0.141483
874.0607,0.145922
874.9926,0.149854
875.9244,0.153294
876.8562,0.155234
877.7881,0.155904
878.7199,0.154902
879.6517,0.151548
880.5836,0.147375
881.5154,0.141662
882.4472,0.134765
883.3791,0.128727
884.3109,0.124052
885.2427,0.118827
886.1746,0.112922
887.1064,0.108927
888.0382,0.105999
888.9701,0.102715
889.9019,0.100229
890.8337,0.098810
891.7656,0.096891
892.6974,0.094847
893.6292,0.093230
894.5611,0.091569
895.4929,0.090030
896.4247,0.088787
897.3566,0.087661
898.2884,0.086801
899.2203,0.086129
900.1521,0.085560
901.0839,0.085172
902.0158,0.084674
902.9476,0.084148
903.8794,0.083029
904.8113,0.081923
905.7431,0.081563
906.6749,0.080889
907.6068,0.080180
908.5386,0.080151
909.4704,0.079881
910.4023,0.078905
911.3341,0.078250
912.2659,0.077985
913.1978,0.077434
914.1296,0.076537
915.0614,0.075913
915.9933,0.075649
916.9251,0.075442
917.8569,0.074969
918.7888,0.074267
919.7206,0.073776
920.6524,0.073821
921.5843,0.073239
922.5161,0.072976
923.4479,0.072908
924.3798,0.072185
925.3116,0.071322
926.2435,0.070991
927.1753,0.070530
928.1071,0.070072
929.0390,0.069769
929.9708,0.069472
930.9026,0.069249
931.8345,0.068867
932.7663,0.068065
933.6981,0.067196
934.6300,0.066850
935.5618,0.066921
936.4936,0.066742
937.4255,0.066020
938.3573,0.065581
939.2891,0.065197
940.2210,0.064933
941.1528,0.064716
942.0846,0.064442
943.0165,0.063802
943.9483,0.063316
944.8801,0.063226
945.8120,0.062524
946.7438,0.062132
947.6756,0.062445
948.6075,0.062578
949.5393,0.062443
950.4711,0.062202
951.4030,0.061590
952.3348,0.061171
953.2667,0.060753
954.1985,0.060393
955.1303,0.060114
956.0622,0.059710
956.9940,0.059778
957.9258,0.060007
958.8577,0.059867
959.7895,0.059058
960.7213,0.058357
961.6532,0.058012
962.5850,0.057943
963.5168,0.058194
964.4487,0.058239
965.3805,0.057950
966.3123,0.057558
967.2442,0.057523
968.1760,0.057798
969.1078,0.057992
970.0397,0.057792
970.9715,0.057500
971.9033,0.057395
972.8352,0.057079
973.7670,0.056902
974.6988,0.057518
975.6307,0.057656
976.5625,0.057488
977.4943,0.057624
978.4262,0.057618
979.3580,0.057655
980.2899,0.057727
981.2217,0.057896
982.1535,0.057725
983.0854,0.057633
984.0172,0.057680
984.9490,0.057737
985.8809,0.057999
986.8127,0.058427
987.7445,0.058826
988.6764,0.059013
989.6082,0.059107
990.5400,0.059436
991.4719,0.059900
992.4037,0.059993
993.3355,0.060007
994.2674,0.060298
995.1992,0.060345
996.1310,0.060463
997.0629,0.060644
997.9947,0.060454
998.9265,0.060556
999.8584,0.060933
1000.7902,0.061297
1001.7220,0.061385
1002.6539,0.061262
1003.5857,0.061379
1004.5175,0.061446
1005.4494,0.061240
1006.3812,0.061106
1007.3131,0.061232
1008.2449,0.061348
1009.1767,0.061972
1010.1086,0.062693
1011.0404,0.062783
1011.9722,0.062984
1012.9041,0.063684
1013.8359,0.064435
1014.7677,0.065207
1015.6996,0.065782
1016.6314,0.066426
1017.5632,0.067184
1018.4951,0.068119
1019.4269,0.069317
1020.3587,0.070707
1021.2906,0.072262
1022.2224,0.073753
1023.1542,0.075223
1024.0861,0.077117
1025.0179,0.079242
1025.9497,0.081444
1026.8816,0.083847
1027.8134,0.087028
1028.7452,0.090543
1029.6771,0.094248
1030.6089,0.098315
1031.5407,0.103100
1032.4726,0.108780
1033.4044,0.115220
1034.3362,0.122867
1035.2681,0.131616
1036.1999,0.141325
1037.1318,0.152297
1038.0636,0.164135
1038.9954,0.176466
1039.9273,0.189050
1040.8591,0.201182
1041.7909,0.211940
1042.7228,0.220265
1043.6546,0.225011
1044.5864,0.225776
1045.5183,0.222601
1046.4501,0.215528
1047.3819,0.205447
1048.3138,0.193313
1049.2456,0.179809
1050.1774,0.165756
1051.1093,0.152084
1052.0411,0.139272
1052.9729,0.127284
1053.9048,0.116504
1054.8366,0.107411
1055.7684,0.099668
1056.7003,0.093284
1057.6321,0.087830
1058.5639,0.083276
1059.4958,0.079763
1060.4276,0.076901
1061.3594,0.074608
1062.2913,0.072866
1063.2231,0.071766
1064.1550,0.070899
1065.0868,0.070431
1066.0186,0.070244
1066.9505,0.070223
1067.8823,0.070713
1068.8141,0.071240
1069.7460,0.071759
1070.6778,0.072712
1071.6096,0.073944
1072.5415,0.075294
1073.4733,0.076705
1074.4051,0.078556
1075.3370,0.080632
1076.2688,0.082565
1077.2006,0.084744
1078.1325,0.086971
1079.0643,0.089249
1079.9961,0.091745
1080.9280,0.093781
1081.8598,0.095681
1082.7916,0.097590
1083.7235,0.098936
1084.6553,0.099453
1085.5871,0.099577
1086.5190,0.099197
1087.4508,0.097907
1088.3826,0.095813
1089.3145,0.093295
1090.2463,0.090202
1091.1782,0.086548
1092.1100,0.083077
1093.0418,0.079549
1093.9737,0.075789
1094.9055,0.072577
1095.8373,0.069621
1096.7692,0.066635
1097.7010,0.063969
1098.6328,0.061723
1099.5647,0.059803
1100.4965,0.058166
1101.4283,0.056836
1102.3602,0.055593
1103.2920,0.054516
1104.2238,0.053615
1105.1557,0.052627
1106.0875,0.051780
1107.0193,0.051151
1107.9512,0.050627
1108.8830,0.050229
1109.8148,0.049912
1110.7467,0.049456
1111.6785,0.049108
1112.6103,0.049069
1113.5422,0.048837
1114.4740,0.048734
1115.4058,0.048768
1116.3377,0.048521
1117.2695,0.048149
1118.2014,0.047850
1119.1332,0.047765
1120.0650,0.047913
1120.9969,0.047949
1121.9287,0.047766
1122.8605,0.047543
1123.7924,0.047386
1124.7242,0.047330
1125.6560,0.047328
1126.5879,0.047207
1127.5197,0.047054
1128.4515,0.046943
1129.3834,0.046961
1130.3152,0.047180
1131.2470,0.047156
1132.1789,0.046940
1133.1107,0.046891
1134.0425,0.046867
1134.9744,0.046700
1135.9062,0.046534
1136.8380,0.046624
1137.7699,0.046532
1138.7017,0.046146
1139.6335,0.046022
1140.5654,0.045972
1141.4972,0.045883
1142.4290,0.045900
1143.3609,0.045569
1144.2927,0.045230
1145.2246,0.045099
1146.1564,0.044985
1147.0882,0.045114
1148.0201,0.045016
1148.9519,0.044769
1149.8837,0.044546
1150.8156,0.044556
1151.7474,0.044551
1152.6792,0.044435
1153.6111,0.044588
1154.5429,0.044413
1155.4747,0.044057
1156.4066,0.044204
1157.3384,0.044304
1158.2702,0.044046
1159.2021,0.043882
1160.1339,0.043864
1161.0657,0.043673
1161.9976,0.043358
1162.9294,0.043112
1163.8612,0.043006
1164.7931,0.042846
1165.7249,0.042565
1166.6567,0.042362
1167.5886,0.042368
1168.5204,0.042458
1169.4522,0.042186
1170.3841,0.041909
1171.3159,0.041880
1172.2477,0.041723
1173.1796,0.041684
1174.1114,0.041684
1175.0433,0.041617
1175.9751,0.041545
1176.9069,0.041338
1177.8388,0.041384
1178.7706,0.041596
1179.7024,0.041497
1180.6343,0.041235
1181.5661,0.041290
1182.4979,0.041534
1183.4298,0.041556
1184.3616,0.041470
1185.2934,0.041386
1186.2253,0.041351
1187.1571,0.041269
1188.0889,0.041338
1189.0208,0.041572
1189.9526,0.041562
1190.8844,0.041370
1191.8163,0.041320
1192.7481,0.041442
1193.6799,0.041648
1194.6118,0.041721
1195.5436,0.041695
1196.4754,0.041775
1197.4073,0.041876
1198.3391,0.041901
1199.2709,0.041720
1200.2028,0.041505
1201.1346,0.041572
1202.0665,0.041602
1202.9983,0.041815
1203.9301,0.042084
1204.8620,0.042010
1205.7938,0.041909
1206.7256,0.041932
1207.6575,0.042171
1208.5893,0.042340
1209.5211,0.042245
1210.4530,0.042313
1211.3848,0.042419
1212.3166,0.042400
1213.2485,0.042383
1214.1803,0.042583
1215.1121,0.042685
1216.0440,0.042501
1216.9758,0.042341
1217.9076,0.042386
1218.8395,0.042527
1219.7713,0.042598
1220.7031,0.042681
1221.6350,0.042721
1222.5668,0.042712
1223.4986,0.042549
1224.4305,0.042349
1225.3623,0.042435
1226.2941,0.042639
1227.2260,0.042749
1228.1578,0.042838
1229.0897,0.042900
1230.0215,0.042951
1230.9533,0.042944
1231.8852,0.043023
1232.8170,0.043187
1233.7488,0.043259
1234.6807,0.043311
1235.6125,0.043387
1236.5443,0.043556
1237.4762,0.043638
1238.4080,0.043596
1239.3398,0.043743
1240.2717,0.044031
1241.2035,0.044094
1242.1353,0.043807
1243.0672,0.043836
1243.9990,0.044201
1244.9308,0.044268
1245.8627,0.044174
1246.7945,0.044510
1247.7263,0.044974
1248.6582,0.044905
1249.5900,0.044897
1250.5218,0.045218
1251.4537,0.045405
1252.3855,0.045383
1253.3173,0.045564
1254.2492,0.046057
1255.1810,0.046247
1256.1129,0.046350
1257.0447,0.046614
1257.9765,0.046907
1258.9084,0.047290
1259.8402,0.047537
1260.7720,0.047799
1261.7039,0.048208
1262.6357,0.048607
1263.5675,0.048949
1264.4994,0.049307
1265.4312,0.049794
1266.3630,0.050297
1267.2949,0.050911
1268.2267,0.051455
1269.1585,0.051823
1270.0904,0.052147
1271.0222,0.052584
1271.9540,0.053181
1272.8859,0.053509
1273.8177,0.053559
1274.7495,0.053685
1275.6814,0.053516
1276.6132,0.053051
1277.5450,0.052791
1278.4769,0.052727
1279.4087,0.052294
1280.3405,0.051834
1281.2724,0.051627
1282.2042,0.051058
1283.1361,0.050499
1284.0679,0.050340
1284.9997,0.050238
1285.9316,0.050061
1286.8634,0.050025
1287.7952,0.050093
1288.7271,0.049878
1289.6589,0.049777
1290.5907,0.050014
1291.5226,0.050100
1292.4544,0.050030
1293.3862,0.049998
1294.3181,0.049985
1295.2499,0.050161
1296.1817,0.050476
1297.1136,0.050671
1298.0454,0.050657
1298.9772,0.050725
1299.9091,0.051032
1300.8409,0.051257
1301.7727,0.051411
1302.7046,0.051677
1303.6364,0.052002
1304.5682,0.052278
1305.5001,0.052425
1306.4319,0.052716
1307.3637,0.053110
1308.2956,0.053268
1309.2274,0.053305
1310.1592,0.053385
1311.0911,0.053476
1312.0229,0.053649
1312.9548,0.053938
1313.8866,0.054447
1314.8184,0.054962
1315.7503,0.055035
1316.6821,0.054913
1317.6139,0.055147
1318.5458,0.055450
1319.4776,0.055724
1320.4094,0.056105
1321.3413,0.056114
1322.2731,0.055800
1323.2049,0.055685
1324.1368,0.055791
1325.0686,0.055894
1326.0004,0.055990
1326.9323,0.056127
1327.8641,0.056169
1328.7959,0.055907
1329.7278,0.055605
1330.6596,0.055450
1331.5914,0.055325
1332.5233,0.055154
1333.4551,0.054848
1334.3869,0.054606
1335.3188,0.054310
1336.2506,0.054049
1337.1824,0.054053
1338.1143,0.053948
1339.0461,0.054109
1339.9780,0.054203
1340.9098,0.053872
1341.8416,0.053236
1342.7735,0.052690
1343.7053,0.052258
1344.6371,0.051874
1345.5690,0.051667
1346.5008,0.051431
1347.4326,0.051245
1348.3645,0.051060
1349.2963,0.050852
1350.2281,0.050711
1351.1600,0.050552
1352.0918,0.050314
1353.0236,0.050030
1353.9555,0.049757
1354.8873,0.049641
1355.8191,0.049866
1356.7510,0.050029
1357.6828,0.049786
1358.6146,0.049507
1359.5465,0.049614
1360.4783,0.049759
1361.4101,0.049993
1362.3420,0.050364
1363.2738,0.051107
1364.2056,0.051749
1365.1375,0.051008
1366.0693,0.050468
1367.0012,0.050895
1367.9330,0.051609
1368.8648,0.052216
1369.7967,0.052819
1370.7285,0.053229
1371.6603,0.053752
1372.5922,0.054702
1373.5240,0.056331
1374.4558,0.058266
1375.3877,0.059729
1376.3195,0.060321
1377.2513,0.060399
1378.1832,0.060991
1379.1150,0.062021
1380.0468,0.062550
1380.9787,0.062679
1381.9105,0.062874
1382.8423,0.063135
1383.7742,0.063213
1384.7060,0.063326
1385.6378,0.063491
1386.5697,0.063316
1387.5015,0.063326
1388.4333,0.063978
1389.3652,0.063499
1390.2970,0.062279
1391.2288,0.061340
1392.1607,0.060766
1393.0925,0.060309
1394.0244,0.060228
1394.9562,0.060906
1395.8880,0.061560
1396.8199,0.061153
1397.7517,0.060680
1398.6835,0.060837
1399.6154,0.061538
1400.5472,0.061950
1401.4790,0.061547
1402.4109,0.061002
1403.3427,0.060942
1404.2745,0.061263
1405.2064,0.062137
1406.1382,0.063101
1407.0700,0.062972
1408.0019,0.062629
1408.9337,0.062524
1409.8655,0.062508
1410.7974,0.062658
1411.7292,0.063015
1412.6610,0.063228
1413.5929,0.063062
1414.5247,0.062858
1415.4565,0.062678
1416.3884,0.062303
1417.3202,0.062248
1418.2520,0.062860
1419.1839,0.063835
1420.1157,0.065037
1421.0476,0.064556
1421.9794,0.062936
1422.9112,0.062223
1423.8431,0.062287
1424.7749,0.062474
1425.7067,0.062272
1426.6386,0.061370
1427.5704,0.060568
1428.5022,0.060208
1429.4341,0.060012
1430.3659,0.059945
1431.2977,0.059797
1432.2296,0.058929
1433.1614,0.057788
1434.0932,0.056910
1435.0251,0.056261
1435.9569,0.056303
1436.8887,0.057615
1437.8206,0.058637
1438.7524,0.057181
1439.6842,0.055952
1440.6161,0.055854
1441.5479,0.055954
1442.4797,0.055834
1443.4116,0.055790
1444.3434,0.056100
1445.2752,0.056516
1446.2071,0.056949
1447.1389,0.057631
1448.0707,0.058997
1449.0026,0.060524
1449.9344,0.060654
1450.8663,0.060149
1451.7981,0.060475
1452.7299,0.061196
1453.6618,0.060888
1454.5936,0.059889
1455.5254,0.059599
1456.4573,0.059769
1457.3891,0.060315
1458.3209,0.060635
1459.2528,0.058879
1460.1846,0.056591
1461.1164,0.054343
1462.0483,0.052421
1462.9801,0.050974
1463.9119,0.050436
1464.8438,0.050692
1465.7756,0.051046
1466.7074,0.050028
1467.6393,0.048222
1468.5711,0.047156
1469.5029,0.046436
1470.4348,0.045790
1471.3666,0.045871
1472.2984,0.046934
1473.2303,0.048145
1474.1621,0.047921
1475.0939,0.046827
1476.0258,0.046781
1476.9576,0.047507
1477.8895,0.047407
1478.8213,0.046867
1479.7531,0.046981
1480.6850,0.047353
1481.6168,0.047414
1482.5486,0.047256
1483.4805,0.047184
1484.4123,0.046812
1485.3441,0.046394
1486.2760,0.046294
1487.2078,0.046281
1488.1396,0.046508
1489.0715,0.046644
1490.0033,0.046254
1490.9351,0.046270
1491.8670,0.045468
1492.7988,0.043827
1493.7306,0.043155
1494.6625,0.043040
1495.5943,0.042995
1496.5261,0.043293
1497.4580,0.043797
1498.3898,0.043522
1499.3216,0.043174
1500.2535,0.043011
1501.1853,0.042694
1502.1171,0.042609
1503.0490,0.042688
1503.9808,0.042400
1504.9127,0.041696
1505.8445,0.041613
1506.7763,0.043467
1507.7082,0.045242
1508.6400,0.043919
1509.5718,0.042468
1510.5037,0.042356
1511.4355,0.042789
1512.3673,0.042998
1513.2992,0.042677
1514.2310,0.042507
1515.1628,0.042531
1516.0947,0.042375
1517.0265,0.042693
1517.9583,0.043878
1518.8902,0.043720
1519.8220,0.042572
1520.7538,0.042730
1521.6857,0.043782
1522.6175,0.044195
1523.5493,0.043756
1524.4812,0.043230
1525.4130,0.043741
1526.3448,0.044350
1527.2767,0.044096
1528.2085,0.043777
1529.1403,0.043828
1530.0722,0.043356
1531.0040,0.043090
1531.9359,0.043347
1532.8677,0.043977
1533.7995,0.044976
1534.7314,0.045769
1535.6632,0.044665
1536.5950,0.043212
1537.5269,0.042926
1538.4587,0.043239
1539.3905,0.044057
1540.3224,0.046050
1541.2542,0.046660
1542.1860,0.046301
1543.1179,0.046962
1544.0497,0.046586
1544.9815,0.046046
1545.9134,0.046933
1546.8452,0.046562
1547.7770,0.045736
1548.7089,0.045701
1549.6407,0.045956
1550.5725,0.046516
1551.5044,0.047014
1552.4362,0.046787
1553.3680,0.046744
1554.2999,0.047120
1555.2317,0.047740
1556.1635,0.047588
1557.0954,0.046567
1558.0272,0.046862
1558.9591,0.049572
1559.8909,0.053793
1560.8227,0.054273
1561.7546,0.051832
1562.6864,0.050366
1563.6182,0.050034
1564.5501,0.050135
1565.4819,0.050799
1566.4137,0.051268
1567.3456,0.051279
1568.2774,0.051528
1569.2092,0.052149
1570.1411,0.053504
1571.0729,0.054635
1572.0047,0.054095
1572.9366,0.053449
1573.8684,0.053415
1574.8002,0.053714
1575.7321,0.054534
1576.6639,0.056759
1577.5957,0.059273
1578.5276,0.059217
1579.4594,0.058534
1580.3912,0.058405
1581.3231,0.058918
1582.2549,0.059742
1583.1867,0.060491
1584.1186,0.061383
1585.0504,0.062253
1585.9822,0.062617
1586.9141,0.062801
1587.8459,0.063766
1588.7778,0.065278
1589.7096,0.066332
1590.6414,0.067000
1591.5733,0.067578
1592.5051,0.068710
1593.4369,0.070013
1594.3688,0.070986
1595.3006,0.072198
1596.2324,0.073538
1597.1643,0.074564
