Wavenumber,Intensity
650.4205,0.384235
651.3523,0.376454
652.2841,0.368496
653.2160,0.360218
654.1478,0.357837
655.0796,0.356982
656.0115,0.358341
656.9433,0.368519
657.8751,0.365411
658.8070,0.358425
659.7388,0.364063
660.6706,0.357969
661.6025,0.349405
662.5343,0.355584
663.4661,0.349702
664.3980,0.341941
665.3298,0.346845
666.2616,0.344374
667.1935,0.339270
668.1253,0.357269
669.0571,0.377830
669.9890,0.372983
670.9208,0.366231
671.8526,0.364072
672.7845,0.358894
673.7163,0.349923
674.6481,0.346418
675.5800,0.343932
676.5118,0.338808
677.4437,0.337773
678.3755,0.343123
679.3073,0.347024
680.2392,0.337051
681.1710,0.330642
682.1028,0.334682
683.0347,0.339324
683.9665,0.337521
684.8983,0.333348
685.8302,0.327408
686.7620,0.320953
687.6938,0.325787
688.6257,0.331729
689.5575,0.329321
690.4893,0.325901
691.4212,0.319465
692.3530,0.315911
693.2848,0.320344
694.2167,0.323658
695.1485,0.318508
696.0803,0.314817
697.0122,0.315301
697.9440,0.314378
698.8758,0.310605
699.8077,0.308925
700.7395,0.308762
701.6713,0.306647
702.6032,0.306488
703.5350,0.309816
704.4669,0.309807
705.3987,0.305646
706.3305,0.302170
707.2624,0.305452
708.1942,0.308623
709.1260,0.305215
710.0579,0.300102
710.9897,0.298283
711.9215,0.298022
712.8534,0.297840
713.7852,0.295718
714.7170,0.292433
715.6489,0.291193
716.5807,0.293219
717.5125,0.293783
718.4444,0.290324
719.3762,0.284399
720.3080,0.283894
721.2399,0.284289
722.1717,0.281680
723.1035,0.281628
724.0354,0.281508
724.9672,0.278969
725.8990,0.278400
726.8309,0.278184
727.7627,0.277827
728.6945,0.273231
729.6264,0.269045
730.5582,0.272312
731.4901,0.274117
732.4219,0.269397
733.3537,0.269020
734.2856,0.271354
735.2174,0.269430
736.1492,0.266652
737.0811,0.266318
738.0129,0.263186
738.9447,0.258710
739.8766,0.258930
740.8084,0.258573
741.7402,0.254755
742.6721,0.252399
743.6039,0.251320
744.5357,0.251450
745.4676,0.251593
746.3994,0.251723
747.3312,0.250450
748.2631,0.247962
749.1949,0.245381
750.1267,0.242427
751.0586,0.241222
751.9904,0.241345
752.9222,0.239851
753.8541,0.239282
754.7859,0.239461
755.7177,0.237083
756.6496,0.234569
757.5814,0.234197
758.5132,0.233302
759.4451,0.232862
760.3769,0.232735
761.3088,0.231123
762.2406,0.229770
763.1724,0.229463
764.1043,0.225990
765.0361,0.224008
765.9679,0.224292
766.8998,0.222743
767.8316,0.220828
768.7634,0.218797
769.6953,0.217861
770.6271,0.219581
771.5589,0.218637
772.4908,0.216712
773.4226,0.215200
774.3544,0.211964
775.2863,0.209491
776.2181,0.210309
777.1499,0.210731
778.0818,0.210087
779.0136,0.208317
779.9454,0.205588
780.8773,0.203462
781.8091,0.202588
782.7409,0.201680
783.6728,0.200856
784.6046,0.199904
785.5364,0.199269
786.4683,0.198491
787.4001,0.196777
788.3320,0.195324
789.2638,0.194927
790.1956,0.194377
791.1275,0.193660
792.0593,0.191436
792.9911,0.188675
793.9230,0.187022
794.8548,0.187252
795.7866,0.186729
796.7185,0.185272
797.6503,0.183486
798.5821,0.181541
799.5140,0.180345
800.4458,0.180518
801.3776,0.181326
802.3095,0.181544
803.2413,0.180387
804.1731,0.178050
805.1050,0.175860
806.0368,0.174401
806.9686,0.173087
807.9005,0.171463
808.8323,0.170029
809.7641,0.169088
810.6960,0.167704
811.6278,0.166215
812.5596,0.164603
813.4915,0.163542
814.4233,0.162649
815.3552,0.160376
816.2870,0.158930
817.2188,0.158596
818.1507,0.157959
819.0825,0.157431
820.0143,0.155233
820.9462,0.153839
821.8780,0.153351
822.8098,0.152559
823.7417,0.151950
824.6735,0.150404
825.6053,0.148483
826.5372,0.147533
827.4690,0.147438
828.4008,0.146341
829.3327,0.145271
830.2645,0.144300
831.1963,0.142037
832.1282,0.141115
833.0600,0.140873
833.9918,0.140262
834.9237,0.139055
835.8555,0.137718
836.7873,0.136784
837.7192,0.136347
838.6510,0.135530
839.5828,0.133993
840.5147,0.133100
841.4465,0.132501
842.3784,0.131734
843.3102,0.130566
844.2420,0.129088
845.1739,0.128301
846.1057,0.127757
847.0375,0.126428
847.9694,0.125326
848.9012,0.124903
849.8330,0.124506
850.7649,0.123417
851.6967,0.122432
852.6285,0.122554
853.5604,0.122340
854.4922,0.121406
855.4240,0.120888
856.3559,0.120847
857.2877,0.120079
858.2195,0.118986
859.1514,0.118450
860.0832,0.119335
861.0150,0.119288
861.9469,0.118796
862.8787,0.119085
863.8105,0.119172
864.7424,0.119722
865.6742,0.120633
866.6060,0.121258
867.5379,0.122558
868.4697,0.124313
869.4016,0.126685
870.3334,0.129733
871.2652,0.133352
872.1971,0.137542
873.1289,0.142584
874.0607,0.147498
874.9926,0.152594
875.9244,0.157645
876.8562,0.161207
877.7881,0.162822
878.7199,0.162566
879.6517,0.159594
880.5836,0.154512
881.5154,0.148013
882.4472,0.140388
883.3791,0.132717
884.3109,0.125368
885.2427,0.118654
886.1746,0.113085
887.1064,0.108347
888.0382,0.103924
888.9701,0.099901
889.9019,0.097026
890.8337,0.094667
891.7656,0.092106
892.6974,0.089975
893.6292,0.088233
894.5611,0.086850
895.4929,0.085672
896.4247,0.084650
897.3566,0.083250
898.2884,0.081868
899.2203,0.081345
900.1521,0.080809
901.0839,0.079805
902.0158,0.078750
902.9476,0.078091
903.8794,0.077239
904.8113,0.076867
905.7431,0.076883
906.6749,0.076179
907.6068,0.074993
908.5386,0.074376
909.4704,0.073890
910.4023,0.072914
911.3341,0.071774
912.2659,0.071180
913.1978,0.071040
914.1296,0.070826
915.0614,0.070687
915.9933,0.070283
916.9251,0.069625
917.8569,0.069323
918.7888,0.069143
919.7206,0.068792
920.6524,0.068293
921.5843,0.067500
922.5161,0.066762
923.4479,0.066131
924.3798,0.065913
925.3116,0.065679
926.2435,0.065088
927.1753,0.064832
928.1071,0.064764
929.0390,0.064594
929.9708,0.064058
930.9026,0.063512
931.8345,0.063355
932.7663,0.063381
933.6981,0.062744
934.6300,0.062094
935.5618,0.062089
936.4936,0.061971
937.4255,0.061416
938.3573,0.061025
939.2891,0.060714
940.2210,0.060258
941.1528,0.059916
942.0846,0.059634
943.0165,0.059273
943.9483,0.059126
944.8801,0.059216
945.8120,0.059171
946.7438,0.058883
947.6756,0.058626
948.6075,0.058191
949.5393,0.057801
950.4711,0.057863
951.4030,0.058012
952.3348,0.057651
953.2667,0.057176
954.1985,0.056768
955.1303,0.056553
956.0622,0.056190
956.9940,0.056027
957.9258,0.055929
958.8577,0.055839
959.7895,0.055843
960.7213,0.055843
961.6532,0.055650
962.5850,0.055313
963.5168,0.055041
964.4487,0.054788
965.3805,0.054441
966.3123,0.054076
967.2442,0.054060
968.1760,0.054521
969.1078,0.054614
970.0397,0.054312
970.9715,0.054215
971.9033,0.054390
972.8352,0.054414
973.7670,0.054311
974.6988,0.053948
975.6307,0.053775
976.5625,0.053803
977.4943,0.053844
978.4262,0.053915
979.3580,0.053565
980.2899,0.053267
981.2217,0.053180
982.1535,0.053226
983.0854,0.053292
984.0172,0.053349
984.9490,0.053330
985.8809,0.053482
986.8127,0.053726
987.7445,0.053712
988.6764,0.053737
989.6082,0.053836
990.5400,0.053637
991.4719,0.053580
992.4037,0.053960
993.3355,0.054008
994.2674,0.054105
995.1992,0.054326
996.1310,0.054347
997.0629,0.054351
997.9947,0.054759
998.9265,0.055203
999.8584,0.055027
1000.7902,0.054900
1001.7220,0.055259
1002.6539,0.055593
1003.5857,0.055843
1004.5175,0.056126
1005.4494,0.056571
1006.3812,0.056941
1007.3131,0.057458
1008.2449,0.057961
1009.1767,0.058317
1010.1086,0.058811
1011.0404,0.059398
1011.9722,0.059889
1012.9041,0.060583
1013.8359,0.061418
1014.7677,0.062018
1015.6996,0.062872
1016.6314,0.064209
1017.5632,0.065521
1018.4951,0.066830
1019.4269,0.068208
1020.3587,0.069614
1021.2906,0.071348
1022.2224,0.073274
1023.1542,0.075551
1024.0861,0.077767
1025.0179,0.080116
1025.9497,0.083151
1026.8816,0.086576
1027.8134,0.090066
1028.7452,0.094021
1029.6771,0.098841
1030.6089,0.104294
1031.5407,0.110337
1032.4726,0.117274
1033.4044,0.125439
1034.3362,0.134755
1035.2681,0.145247
1036.1999,0.157166
1037.1318,0.170548
1038.0636,0.185007
1038.9954,0.199963
1039.9273,0.215154
1040.8591,0.229773
1041.7909,0.242127
1042.7228,0.251583
1043.6546,0.257326
1044.5864,0.258207
1045.5183,0.254313
1046.4501,0.246295
1047.3819,0.234707
1048.3138,0.220379
1049.2456,0.204614
1050.1774,0.188379
1051.1093,0.172242
1052.0411,0.156887
1052.9729,0.142465
1053.9048,0.129493
1054.8366,0.118306
1055.7684,0.108479
1056.7003,0.099827
1057.6321,0.092693
1058.5639,0.086967
1059.4958,0.082154
1060.4276,0.078622
1061.3594,0.076043
1062.2913,0.073839
1063.2231,0.072265
1064.1550,0.071382
1065.0868,0.070996
1066.0186,0.070761
1066.9505,0.070688
1067.8823,0.071264
1068.8141,0.072096
1069.7460,0.072921
1070.6778,0.074298
1071.6096,0.076199
1072.5415,0.078074
1073.4733,0.080171
1074.4051,0.082663
1075.3370,0.085112
1076.2688,0.087377
1077.2006,0.090317
1078.1325,0.093787
1079.0643,0.096802
1079.9961,0.099729
1080.9280,0.102715
1081.8598,0.105291
1082.7916,0.107682
1083.7235,0.109628
1084.6553,0.110675
1085.5871,0.110835
1086.5190,0.110118
1087.4508,0.108626
1088.3826,0.106428
1089.3145,0.103533
1090.2463,0.099798
1091.1782,0.095750
1092.1100,0.091623
1093.0418,0.087197
1093.9737,0.082599
1094.9055,0.078286
1095.8373,0.074419
1096.7692,0.070438
1097.7010,0.066754
1098.6328,0.063927
1099.5647,0.061366
1100.4965,0.058894
1101.4283,0.056655
1102.3602,0.054843
1103.2920,0.053533
1104.2238,0.052279
1105.1557,0.051025
1106.0875,0.050107
1107.0193,0.049224
1107.9512,0.048533
1108.8830,0.047919
1109.8148,0.047266
1110.7467,0.046658
1111.6785,0.046351
1112.6103,0.046278
1113.5422,0.045981
1114.4740,0.045610
1115.4058,0.045328
1116.3377,0.045099
1117.2695,0.044992
1118.2014,0.045017
1119.1332,0.044929
1120.0650,0.044805
1120.9969,0.044799
1121.9287,0.044699
1122.8605,0.044510
1123.7924,0.044479
1124.7242,0.044773
1125.6560,0.044765
1126.5879,0.044517
1127.5197,0.044415
1128.4515,0.044322
1129.3834,0.044103
1130.3152,0.043971
1131.2470,0.043975
1132.1789,0.044077
1133.1107,0.043666
1134.0425,0.043306
1134.9744,0.043284
1135.9062,0.043138
1136.8380,0.042850
1137.7699,0.042733
1138.7017,0.042709
1139.6335,0.042673
1140.5654,0.042575
1141.4972,0.042364
1142.4290,0.042338
1143.3609,0.042246
1144.2927,0.042076
1145.2246,0.042211
1146.1564,0.042173
1147.0882,0.041901
1148.0201,0.041863
1148.9519,0.041940
1149.8837,0.042057
1150.8156,0.042091
1151.7474,0.042012
1152.6792,0.042080
1153.6111,0.042096
1154.5429,0.041868
1155.4747,0.041879
1156.4066,0.041918
1157.3384,0.041769
1158.2702,0.041677
1159.2021,0.041487
1160.1339,0.041369
1161.0657,0.041305
1161.9976,0.041011
1162.9294,0.040670
1163.8612,0.040373
1164.7931,0.040099
1165.7249,0.040035
1166.6567,0.039951
1167.5886,0.039820
1168.5204,0.039722
1169.4522,0.039468
1170.3841,0.039201
1171.3159,0.039272
1172.2477,0.039215
1173.1796,0.039190
1174.1114,0.039102
1175.0433,0.038963
1175.9751,0.038899
1176.9069,0.038876
1177.8388,0.038923
1178.7706,0.038874
1179.7024,0.038822
1180.6343,0.038847
1181.5661,0.038902
1182.4979,0.039077
1183.4298,0.039110
1184.3616,0.038923
1185.2934,0.039047
1186.2253,0.039223
1187.1571,0.039252
1188.0889,0.039156
1189.0208,0.039026
1189.9526,0.038892
1190.8844,0.038832
1191.8163,0.038938
1192.7481,0.038978
1193.6799,0.038978
1194.6118,0.039145
1195.5436,0.039129
1196.4754,0.039076
1197.4073,0.039168
1198.3391,0.039204
1199.2709,0.039166
1200.2028,0.039161
1201.1346,0.039021
1202.0665,0.039163
1202.9983,0.039320
1203.9301,0.039330
1204.8620,0.039351
1205.7938,0.039319
1206.7256,0.039211
1207.6575,0.038966
1208.5893,0.038959
1209.5211,0.039210
1210.4530,0.039306
1211.3848,0.039257
1212.3166,0.039236
1213.2485,0.039523
1214.1803,0.039868
1215.1121,0.039673
1216.0440,0.039559
1216.9758,0.039806
1217.9076,0.039834
1218.8395,0.039826
1219.7713,0.039943
1220.7031,0.039835
1221.6350,0.039756
1222.5668,0.040020
1223.4986,0.040158
1224.4305,0.040056
1225.3623,0.040290
1226.2941,0.040525
1227.2260,0.040510
1228.1578,0.040622
1229.0897,0.040643
1230.0215,0.040661
1230.9533,0.040758
1231.8852,0.040512
1232.8170,0.040451
1233.7488,0.040794
1234.6807,0.041146
1235.6125,0.041234
1236.5443,0.041148
1237.4762,0.041131
1238.4080,0.041448
1239.3398,0.041817
1240.2717,0.041927
1241.2035,0.041866
1242.1353,0.041832
1243.0672,0.041856
1243.9990,0.041784
1244.9308,0.042000
1245.8627,0.042428
1246.7945,0.042753
1247.7263,0.042730
1248.6582,0.042736
1249.5900,0.042940
1250.5218,0.043274
1251.4537,0.043660
1252.3855,0.043780
1253.3173,0.043753
1254.2492,0.043875
1255.1810,0.044318
1256.1129,0.044766
1257.0447,0.045156
1257.9765,0.045460
1258.9084,0.045780
1259.8402,0.046031
1260.7720,0.046441
1261.7039,0.047071
1262.6357,0.047730
1263.5675,0.048084
1264.4994,0.048548
1265.4312,0.049135
1266.3630,0.049748
1267.2949,0.050197
1268.2267,0.050561
1269.1585,0.051195
1270.0904,0.051837
1271.0222,0.052382
1271.9540,0.053034
1272.8859,0.053555
1273.8177,0.053475
1274.7495,0.053242
1275.6814,0.053238
1276.6132,0.053137
1277.5450,0.052588
1278.4769,0.052158
1279.4087,0.051771
1280.3405,0.051341
1281.2724,0.051009
1282.2042,0.050707
1283.1361,0.050370
1284.0679,0.050011
1284.9997,0.049637
1285.9316,0.049299
1286.8634,0.049225
1287.7952,0.049199
1288.7271,0.049189
1289.6589,0.049282
1290.5907,0.049057
1291.5226,0.049106
1292.4544,0.049263
1293.3862,0.049321
1294.3181,0.049347
1295.2499,0.049568
1296.1817,0.049583
1297.1136,0.049387
1298.0454,0.049907
1298.9772,0.050512
1299.9091,0.050936
1300.8409,0.051299
1301.7727,0.051458
1302.7046,0.051688
1303.6364,0.051881
1304.5682,0.051893
1305.5001,0.052242
1306.4319,0.052739
1307.3637,0.053057
1308.2956,0.053131
1309.2274,0.053205
1310.1592,0.053453
1311.0911,0.053693
1312.0229,0.053766
1312.9548,0.053925
1313.8866,0.054609
1314.8184,0.055093
1315.7503,0.055129
1316.6821,0.055158
1317.6139,0.055253
1318.5458,0.055420
1319.4776,0.055633
1320.4094,0.056050
1321.3413,0.056149
1322.2731,0.056219
1323.2049,0.056158
1324.1368,0.056110
1325.0686,0.055973
1326.0004,0.055768
1326.9323,0.055863
1327.8641,0.056067
1328.7959,0.055971
1329.7278,0.055818
1330.6596,0.055676
1331.5914,0.055521
1332.5233,0.055252
1333.4551,0.055055
1334.3869,0.054686
1335.3188,0.054104
1336.2506,0.053622
1337.1824,0.053294
1338.1143,0.053069
1339.0461,0.052960
1339.9780,0.053300
1340.9098,0.053505
1341.8416,0.053146
1342.7735,0.052436
1343.7053,0.051775
1344.6371,0.051265
1345.5690,0.050792
1346.5008,0.050757
1347.4326,0.050664
1348.3645,0.050222
1349.2963,0.049961
1350.2281,0.049615
1351.1600,0.049223
1352.0918,0.049172
1353.0236,0.049306
1353.9555,0.049319
1354.8873,0.049041
1355.8191,0.048870
1356.7510,0.048878
1357.6828,0.048789
1358.6146,0.048839
1359.5465,0.048826
1360.4783,0.048460
1361.4101,0.048522
1362.3420,0.049498
1363.2738,0.050288
1364.2056,0.051102
1365.1375,0.051034
1366.0693,0.050393
1367.0012,0.050376
1367.9330,0.050854
1368.8648,0.051696
1369.7967,0.052927
1370.7285,0.053598
1371.6603,0.054069
1372.5922,0.054927
1373.5240,0.056248
1374.4558,0.058662
1375.3877,0.061180
1376.3195,0.061916
1377.2513,0.062134
1378.1832,0.062445
1379.1150,0.063273
1380.0468,0.064212
1380.9787,0.065073
1381.9105,0.065378
1382.8423,0.065601
1383.7742,0.065650
1384.7060,0.065305
1385.6378,0.064987
1386.5697,0.065077
1387.5015,0.065787
1388.4333,0.066941
1389.3652,0.066369
1390.2970,0.064625
1391.2288,0.063523
1392.1607,0.062946
1393.0925,0.061997
1394.0244,0.061355
1394.9562,0.061684
1395.8880,0.062552
1396.8199,0.062673
1397.7517,0.062334
1398.6835,0.062455
1399.6154,0.063744
1400.5472,0.064448
1401.4790,0.063336
1402.4109,0.062584
1403.3427,0.062594
1404.2745,0.062822
1405.2064,0.063683
1406.1382,0.064967
1407.0700,0.064820
1408.0019,0.064032
1408.9337,0.063996
1409.8655,0.064235
1410.7974,0.064509
1411.7292,0.064719
1412.6610,0.064758
1413.5929,0.064397
1414.5247,0.063817
1415.4565,0.063508
1416.3884,0.063282
1417.3202,0.063073
1418.2520,0.063391
1419.1839,0.064237
1420.1157,0.066131
1421.0476,0.066559
1421.9794,0.064202
1422.9112,0.062773
1423.8431,0.062852
1424.7749,0.063690
1425.7067,0.063174
1426.6386,0.061658
1427.5704,0.060787
1428.5022,0.060245
1429.4341,0.059406
1430.3659,0.059492
1431.2977,0.059668
1432.2296,0.058591
1433.1614,0.057525
1434.0932,0.057048
1435.0251,0.056480
1435.9569,0.055895
1436.8887,0.056517
1437.8206,0.058436
1438.7524,0.057875
1439.6842,0.056336
1440.6161,0.055945
1441.5479,0.055943
1442.4797,0.055724
1443.4116,0.055538
1444.3434,0.056139
1445.2752,0.056814
1446.2071,0.057272
1447.1389,0.057812
1448.0707,0.059056
1449.0026,0.061347
1449.9344,0.062436
1450.8663,0.061723
1451.7981,0.061146
1452.7299,0.061076
1453.6618,0.061023
1454.5936,0.060366
1455.5254,0.059501
1456.4573,0.059330
1457.3891,0.060361
1458.3209,0.061084
1459.2528,0.059345
1460.1846,0.056614
1461.1164,0.054438
1462.0483,0.052384
1462.9801,0.050681
1463.9119,0.049362
1464.8438,0.048195
1465.7756,0.048338
1466.7074,0.047955
1467.6393,0.046305
1468.5711,0.045458
1469.5029,0.044739
1470.4348,0.043785
1471.3666,0.043100
1472.2984,0.042993
1473.2303,0.044455
1474.1621,0.045755
1475.0939,0.045911
1476.0258,0.045279
1476.9576,0.044914
1477.8895,0.045509
1478.8213,0.045295
1479.7531,0.044957
1480.6850,0.044764
1481.6168,0.044894
1482.5486,0.045124
1483.4805,0.044952
1484.4123,0.044808
1485.3441,0.044564
1486.2760,0.044145
1487.2078,0.043875
1488.1396,0.043999
1489.0715,0.044232
1490.0033,0.044152
1490.9351,0.044042
1491.8670,0.043670
1492.7988,0.042743
1493.7306,0.041451
1494.6625,0.040178
1495.5943,0.039310
1496.5261,0.039580
1497.4580,0.041166
1498.3898,0.041188
1499.3216,0.040363
1500.2535,0.040738
1501.1853,0.040374
1502.1171,0.039366
1503.0490,0.038908
1503.9808,0.038220
1504.9127,0.037118
1505.8445,0.036834
1506.7763,0.038488
1507.7082,0.041836
1508.6400,0.042524
1509.5718,0.041480
1510.5037,0.040336
1511.4355,0.039822
1512.3673,0.039431
1513.2992,0.039208
1514.2310,0.039071
1515.1628,0.038281
1516.0947,0.038207
1517.0265,0.039123
1517.9583,0.039969
1518.8902,0.040216
1519.8220,0.038865
1520.7538,0.037993
1521.6857,0.039599
1522.6175,0.041295
1523.5493,0.040376
1524.4812,0.039347
1525.4130,0.038915
1526.3448,0.039554
1527.2767,0.040150
1528.2085,0.040212
1529.1403,0.040331
1530.0722,0.040061
1531.0040,0.039463
1531.9359,0.039451
1532.8677,0.039926
1533.7995,0.040627
1534.7314,0.041134
1535.6632,0.040494
1536.5950,0.039611
1537.5269,0.038935
1538.4587,0.038276
1539.3905,0.037915
1540.3224,0.040014
1541.2542,0.043024
1542.1860,0.042154
1543.1179,0.041867
1544.0497,0.042226
1544.9815,0.042401
1545.9134,0.043073
1546.8452,0.043262
1547.7770,0.042440
1548.7089,0.041824
1549.6407,0.041471
1550.5725,0.042187
1551.5044,0.043539
1552.4362,0.042809
1553.3680,0.041635
1554.2999,0.041668
1555.2317,0.042516
1556.1635,0.042944
1557.0954,0.041888
1558.0272,0.041406
1558.9591,0.043629
1559.8909,0.049658
1560.8227,0.050697
1561.7546,0.048502
1562.6864,0.046022
1563.6182,0.045009
1564.5501,0.045218
1565.4819,0.045629
1566.4137,0.046166
1567.3456,0.046376
1568.2774,0.046396
1569.2092,0.046927
1570.1411,0.048708
1571.0729,0.050657
1572.0047,0.049738
1572.9366,0.048330
1573.8684,0.048337
1574.8002,0.048879
1575.7321,0.049265
1576.6639,0.050944
1577.5957,0.054552
1578.5276,0.055495
1579.4594,0.054387
1580.3912,0.053482
1581.3231,0.053364
1582.2549,0.053874
1583.1867,0.054615
1584.1186,0.055555
1585.0504,0.056099
1585.9822,0.056505
1586.9141,0.057390
1587.8459,0.058429
1588.7778,0.059136
1589.7096,0.059820
1590.6414,0.060233
1591.5733,0.061097
1592.5051,0.062626
1593.4369,0.063766
1594.3688,0.064412
1595.3006,0.065816
1596.2324,0.067521
1597.1643,0.068835
