Wavenumber,Intensity
650.4205,0.384939
651.3523,0.384072
652.2841,0.366291
653.2160,0.355791
654.1478,0.349222
655.0796,0.347563
656.0115,0.365448
656.9433,0.380620
657.8751,0.377779
658.8070,0.368181
659.7388,0.358721
660.6706,0.358899
661.6025,0.358298
662.5343,0.352601
663.4661,0.355200
664.3980,0.355733
665.3298,0.350146
666.2616,0.347397
667.1935,0.340664
668.1253,0.346563
669.0571,0.361781
669.9890,0.352935
670.9208,0.347828
671.8526,0.346355
672.7845,0.345429
673.7163,0.349310
674.6481,0.350516
675.5800,0.349084
676.5118,0.350041
677.4437,0.348166
678.3755,0.339314
679.3073,0.332124
680.2392,0.325072
681.1710,0.321413
682.1028,0.323983
683.0347,0.327804
683.9665,0.327403
684.8983,0.324714
685.8302,0.326781
686.7620,0.329827
687.6938,0.328686
688.6257,0.325375
689.5575,0.322286
690.4893,0.323129
691.4212,0.324714
692.3530,0.318527
693.2848,0.314539
694.2167,0.315469
695.1485,0.312672
696.0803,0.311603
697.0122,0.309567
697.9440,0.309872
698.8758,0.311269
699.8077,0.311046
700.7395,0.308046
701.6713,0.304362
702.6032,0.305813
703.5350,0.307265
704.4669,0.303264
705.3987,0.299603
706.3305,0.297663
707.2624,0.298619
708.1942,0.298697
709.1260,0.297078
710.0579,0.295190
710.9897,0.293421
711.9215,0.292495
712.8534,0.293892
713.7852,0.293707
714.7170,0.291469
715.6489,0.288451
716.5807,0.286612
717.5125,0.287200
718.4444,0.289598
719.3762,0.288239
720.3080,0.285183
721.2399,0.282223
722.1717,0.280605
723.1035,0.278434
724.0354,0.276379
724.9672,0.275708
725.8990,0.273794
726.8309,0.271212
727.7627,0.270804
728.6945,0.269912
729.6264,0.269292
730.5582,0.270062
731.4901,0.269253
732.4219,0.266230
733.3537,0.264418
734.2856,0.263199
735.2174,0.261151
736.1492,0.259589
737.0811,0.260464
738.0129,0.260805
738.9447,0.258657
739.8766,0.255089
740.8084,0.253644
741.7402,0.252470
742.6721,0.250124
743.6039,0.250458
744.5357,0.250658
745.4676,0.247411
746.3994,0.245861
747.3312,0.246352
748.2631,0.245384
749.1949,0.242988
750.1267,0.240476
751.0586,0.238955
751.9904,0.239724
752.9222,0.238228
753.8541,0.235700
754.7859,0.235549
755.7177,0.235784
756.6496,0.233378
757.5814,0.231548
758.5132,0.232079
759.4451,0.231301
760.3769,0.229355
761.3088,0.228591
762.2406,0.228714
763.1724,0.227293
764.1043,0.223758
765.0361,0.222573
765.9679,0.222365
766.8998,0.220016
767.8316,0.217086
768.7634,0.216682
769.6953,0.216883
770.6271,0.216935
771.5589,0.216154
772.4908,0.214829
773.4226,0.212454
774.3544,0.211381
775.2863,0.211678
776.2181,0.210958
777.1499,0.209293
778.0818,0.207991
779.0136,0.205405
779.9454,0.203031
780.8773,0.202244
781.8091,0.201119
782.7409,0.200092
783.6728,0.198548
784.6046,0.196509
785.5364,0.195618
786.4683,0.195241
787.4001,0.194624
788.3320,0.193337
789.2638,0.192152
790.1956,0.190605
791.1275,0.189627
792.0593,0.189736
792.9911,0.188739
793.9230,0.187162
794.8548,0.186540
795.7866,0.185435
796.7185,0.184175
797.6503,0.182362
798.5821,0.181469
799.5140,0.179997
800.4458,0.178846
801.3776,0.178572
802.3095,0.177692
803.2413,0.177552
804.1731,0.176564
805.1050,0.174706
806.0368,0.173451
806.9686,0.172653
807.9005,0.171804
808.8323,0.170092
809.7641,0.168424
810.6960,0.166922
811.6278,0.165151
812.5596,0.164156
813.4915,0.163161
814.4233,0.160487
815.3552,0.158736
816.2870,0.158007
817.2188,0.155980
818.1507,0.154211
819.0825,0.154310
820.0143,0.153561
820.9462,0.152080
821.8780,0.151367
822.8098,0.151072
823.7417,0.150123
824.6735,0.148563
825.6053,0.147079
826.5372,0.145985
827.4690,0.144724
828.4008,0.143447
829.3327,0.143447
830.2645,0.143268
831.1963,0.142301
832.1282,0.141028
833.0600,0.139650
833.9918,0.138937
834.9237,0.137508
835.8555,0.136396
836.7873,0.135902
837.7192,0.135032
838.6510,0.133652
839.5828,0.132363
840.5147,0.131319
841.4465,0.130300
842.3784,0.129511
843.3102,0.129205
844.2420,0.128323
845.1739,0.127163
846.1057,0.125947
847.0375,0.125177
847.9694,0.124177
848.9012,0.123651
849.8330,0.123433
850.7649,0.122464
851.6967,0.121661
852.6285,0.121425
853.5604,0.121269
854.4922,0.120693
855.4240,0.119025
856.3559,0.118415
857.2877,0.118817
858.2195,0.118123
859.1514,0.117197
860.0832,0.117262
861.0150,0.117479
861.9469,0.118061
862.8787,0.118763
863.8105,0.119007
864.7424,0.118889
865.6742,0.119255
866.6060,0.120508
867.5379,0.122286
868.4697,0.124722
869.4016,0.127671
870.3334,0.130181
871.2652,0.133464
872.1971,0.138242
873.1289,0.144150
874.0607,0.150484
874.9926,0.156185
875.9244,0.161158
876.8562,0.165438
877.7881,0.167556
878.7199,0.166021
879.6517,0.162030
880.5836,0.156704
881.5154,0.150268
882.4472,0.142868
883.3791,0.134687
884.3109,0.126912
885.2427,0.120397
886.1746,0.114327
887.1064,0.108532
888.0382,0.104010
888.9701,0.100233
889.9019,0.096930
890.8337,0.094168
891.7656,0.092309
892.6974,0.090505
893.6292,0.087850
894.5611,0.085896
895.4929,0.084846
896.4247,0.083635
897.3566,0.082514
898.2884,0.081150
899.2203,0.079914
900.1521,0.079385
901.0839,0.078941
902.0158,0.078178
902.9476,0.077427
903.8794,0.076663
904.8113,0.075744
905.7431,0.075300
906.6749,0.074938
907.6068,0.073994
908.5386,0.073014
909.4704,0.072625
910.4023,0.072086
911.3341,0.071227
912.2659,0.070707
913.1978,0.070515
914.1296,0.069972
915.0614,0.069598
915.9933,0.069560
916.9251,0.068927
917.8569,0.068115
918.7888,0.067689
919.7206,0.067398
920.6524,0.067143
921.5843,0.066490
922.5161,0.065936
923.4479,0.065779
924.3798,0.065626
925.3116,0.065454
926.2435,0.064978
927.1753,0.064287
928.1071,0.064146
929.0390,0.064207
929.9708,0.063354
930.9026,0.062587
931.8345,0.062326
932.7663,0.061932
933.6981,0.061475
934.6300,0.060932
935.5618,0.060598
936.4936,0.060394
937.4255,0.060493
938.3573,0.060588
939.2891,0.060120
940.2210,0.059572
941.1528,0.059403
942.0846,0.059178
943.0165,0.058995
943.9483,0.058696
944.8801,0.058185
945.8120,0.058290
946.7438,0.058271
947.6756,0.057611
948.6075,0.057625
949.5393,0.057742
950.4711,0.057105
951.4030,0.056583
952.3348,0.056367
953.2667,0.056175
954.1985,0.055956
955.1303,0.055838
956.0622,0.055653
956.9940,0.055783
957.9258,0.055715
958.8577,0.055242
959.7895,0.054761
960.7213,0.054988
961.6532,0.055199
962.5850,0.054700
963.5168,0.054515
964.4487,0.054494
965.3805,0.054489
966.3123,0.054709
967.2442,0.054441
968.1760,0.053944
969.1078,0.053770
970.0397,0.053756
970.9715,0.053527
971.9033,0.053322
972.8352,0.053249
973.7670,0.053495
974.6988,0.053716
975.6307,0.053550
976.5625,0.053354
977.4943,0.053026
978.4262,0.052637
979.3580,0.052954
980.2899,0.053593
981.2217,0.053639
982.1535,0.053203
983.0854,0.052964
984.0172,0.053126
984.9490,0.052969
985.8809,0.052761
986.8127,0.053018
987.7445,0.053412
988.6764,0.053524
989.6082,0.053320
990.5400,0.053316
991.4719,0.053327
992.4037,0.053439
993.3355,0.053582
994.2674,0.053457
995.1992,0.053731
996.1310,0.054409
997.0629,0.054709
997.9947,0.054665
998.9265,0.054620
999.8584,0.054606
1000.7902,0.054865
1001.7220,0.055118
1002.6539,0.055476
1003.5857,0.056001
1004.5175,0.056330
1005.4494,0.056597
1006.3812,0.056831
1007.3131,0.057136
1008.2449,0.057858
1009.1767,0.058184
1010.1086,0.058616
1011.0404,0.059463
1011.9722,0.060139
1012.9041,0.060887
1013.8359,0.062038
1014.7677,0.062957
1015.6996,0.063748
1016.6314,0.064609
1017.5632,0.065918
1018.4951,0.067542
1019.4269,0.069101
1020.3587,0.070584
1021.2906,0.072396
1022.2224,0.074629
1023.1542,0.076860
1024.0861,0.079479
1025.0179,0.082200
1025.9497,0.085243
1026.8816,0.088810
1027.8134,0.092800
1028.7452,0.097306
1029.6771,0.102082
1030.6089,0.107230
1031.5407,0.113876
1032.4726,0.121569
1033.4044,0.130012
1034.3362,0.140062
1035.2681,0.151650
1036.1999,0.164186
1037.1318,0.178128
1038.0636,0.193550
1038.9954,0.209874
1039.9273,0.225933
1040.8591,0.241103
1041.7909,0.254125
1042.7228,0.263877
1043.6546,0.269304
1044.5864,0.270211
1045.5183,0.266217
1046.4501,0.257431
1047.3819,0.245014
1048.3138,0.230110
1049.2456,0.213809
1050.1774,0.197026
1051.1093,0.180197
1052.0411,0.164024
1052.9729,0.148885
1053.9048,0.134924
1054.8366,0.122736
1055.7684,0.112354
1056.7003,0.103400
1057.6321,0.095807
1058.5639,0.089628
1059.4958,0.084790
1060.4276,0.081043
1061.3594,0.077921
1062.2913,0.075374
1063.2231,0.073665
1064.1550,0.072603
1065.0868,0.072132
1066.0186,0.072016
1066.9505,0.072332
1067.8823,0.072788
1068.8141,0.073598
1069.7460,0.074552
1070.6778,0.075904
1071.6096,0.077881
1072.5415,0.079988
1073.4733,0.082166
1074.4051,0.084522
1075.3370,0.087196
1076.2688,0.090084
1077.2006,0.093348
1078.1325,0.096645
1079.0643,0.099996
1079.9961,0.103251
1080.9280,0.106085
1081.8598,0.108983
1082.7916,0.111365
1083.7235,0.113236
1084.6553,0.114608
1085.5871,0.114908
1086.5190,0.114466
1087.4508,0.113170
1088.3826,0.110792
1089.3145,0.107555
1090.2463,0.103748
1091.1782,0.099431
1092.1100,0.094692
1093.0418,0.089930
1093.9737,0.085192
1094.9055,0.080578
1095.8373,0.076338
1096.7692,0.072235
1097.7010,0.068442
1098.6328,0.065335
1099.5647,0.062561
1100.4965,0.060075
1101.4283,0.057843
1102.3602,0.055865
1103.2920,0.054154
1104.2238,0.052701
1105.1557,0.051562
1106.0875,0.050334
1107.0193,0.049526
1107.9512,0.048971
1108.8830,0.048249
1109.8148,0.047465
1110.7467,0.046924
1111.6785,0.046420
1112.6103,0.045933
1113.5422,0.045630
1114.4740,0.045209
1115.4058,0.045078
1116.3377,0.045063
1117.2695,0.044803
1118.2014,0.044618
1119.1332,0.044315
1120.0650,0.044389
1120.9969,0.044783
1121.9287,0.044766
1122.8605,0.044529
1123.7924,0.044397
1124.7242,0.044559
1125.6560,0.044462
1126.5879,0.044272
1127.5197,0.044194
1128.4515,0.044004
1129.3834,0.043745
1130.3152,0.043701
1131.2470,0.043608
1132.1789,0.043515
1133.1107,0.043239
1134.0425,0.042829
1134.9744,0.042599
1135.9062,0.042595
1136.8380,0.042682
1137.7699,0.042601
1138.7017,0.042419
1139.6335,0.042309
1140.5654,0.042374
1141.4972,0.042100
1142.4290,0.041788
1143.3609,0.041929
1144.2927,0.042075
1145.2246,0.041772
1146.1564,0.041398
1147.0882,0.041130
1148.0201,0.041319
1148.9519,0.041656
1149.8837,0.041842
1150.8156,0.041833
1151.7474,0.041636
1152.6792,0.041734
1153.6111,0.041909
1154.5429,0.041731
1155.4747,0.041560
1156.4066,0.041505
1157.3384,0.041378
1158.2702,0.041372
1159.2021,0.041328
1160.1339,0.041097
1161.0657,0.040889
1161.9976,0.040416
1162.9294,0.039946
1163.8612,0.040017
1164.7931,0.039977
1165.7249,0.039654
1166.6567,0.039391
1167.5886,0.038947
1168.5204,0.038907
1169.4522,0.039099
1170.3841,0.038943
1171.3159,0.038670
1172.2477,0.038659
1173.1796,0.038752
1174.1114,0.038769
1175.0433,0.038662
1175.9751,0.038735
1176.9069,0.038772
1177.8388,0.038582
1178.7706,0.038409
1179.7024,0.038558
1180.6343,0.038658
1181.5661,0.038475
1182.4979,0.038452
1183.4298,0.038624
1184.3616,0.038408
1185.2934,0.038151
1186.2253,0.038117
1187.1571,0.038235
1188.0889,0.038491
1189.0208,0.038535
1189.9526,0.038383
1190.8844,0.038359
1191.8163,0.038456
1192.7481,0.038449
1193.6799,0.038401
1194.6118,0.038259
1195.5436,0.038374
1196.4754,0.038552
1197.4073,0.038660
1198.3391,0.038712
1199.2709,0.038772
1200.2028,0.038756
1201.1346,0.038723
1202.0665,0.038686
1202.9983,0.038636
1203.9301,0.038638
1204.8620,0.038598
1205.7938,0.038625
1206.7256,0.038776
1207.6575,0.039023
1208.5893,0.039104
1209.5211,0.039028
1210.4530,0.038940
1211.3848,0.038885
1212.3166,0.039078
1213.2485,0.039247
1214.1803,0.039040
1215.1121,0.038939
1216.0440,0.039167
1216.9758,0.039374
1217.9076,0.039443
1218.8395,0.039450
1219.7713,0.039502
1220.7031,0.039381
1221.6350,0.039213
1222.5668,0.039437
1223.4986,0.039561
1224.4305,0.039578
1225.3623,0.039640
1226.2941,0.039813
1227.2260,0.040047
1228.1578,0.040170
1229.0897,0.040160
1230.0215,0.040130
1230.9533,0.040066
1231.8852,0.040006
1232.8170,0.040303
1233.7488,0.040512
1234.6807,0.040646
1235.6125,0.040669
1236.5443,0.040563
1237.4762,0.040664
1238.4080,0.040806
1239.3398,0.040889
1240.2717,0.041047
1241.2035,0.041103
1242.1353,0.041270
1243.0672,0.041579
1243.9990,0.041724
1244.9308,0.041657
1245.8627,0.041639
1246.7945,0.041969
1247.7263,0.042323
1248.6582,0.042590
1249.5900,0.042887
1250.5218,0.042950
1251.4537,0.043005
1252.3855,0.043206
1253.3173,0.043491
1254.2492,0.043865
1255.1810,0.044220
1256.1129,0.044637
1257.0447,0.044894
1257.9765,0.045142
1258.9084,0.045319
1259.8402,0.045677
1260.7720,0.046106
1261.7039,0.046513
1262.6357,0.047285
1263.5675,0.047782
1264.4994,0.048334
1265.4312,0.049075
1266.3630,0.049851
1267.2949,0.050546
1268.2267,0.050942
1269.1585,0.051549
1270.0904,0.052281
1271.0222,0.052775
1271.9540,0.053091
1272.8859,0.053367
1273.8177,0.053515
1274.7495,0.053525
1275.6814,0.053646
1276.6132,0.053397
1277.5450,0.053000
1278.4769,0.052359
1279.4087,0.051782
1280.3405,0.051450
1281.2724,0.051182
1282.2042,0.050699
1283.1361,0.050101
1284.0679,0.049763
1284.9997,0.049695
1285.9316,0.049525
1286.8634,0.049271
1287.7952,0.049010
1288.7271,0.049118
1289.6589,0.049279
1290.5907,0.049453
1291.5226,0.049452
1292.4544,0.049224
1293.3862,0.049197
1294.3181,0.049179
1295.2499,0.049456
1296.1817,0.049963
1297.1136,0.050453
1298.0454,0.050628
1298.9772,0.050740
1299.9091,0.050926
1300.8409,0.051292
1301.7727,0.051607
1302.7046,0.051696
1303.6364,0.051716
1304.5682,0.052086
1305.5001,0.052550
1306.4319,0.053023
1307.3637,0.053164
1308.2956,0.053363
1309.2274,0.053641
1310.1592,0.053939
1311.0911,0.054098
1312.0229,0.054185
1312.9548,0.054437
1313.8866,0.054873
1314.8184,0.055403
1315.7503,0.055653
1316.6821,0.055672
1317.6139,0.055940
1318.5458,0.056364
1319.4776,0.056375
1320.4094,0.056470
1321.3413,0.056448
1322.2731,0.056401
1323.2049,0.056648
1324.1368,0.056716
1325.0686,0.056368
1326.0004,0.056123
1326.9323,0.056307
1327.8641,0.056451
1328.7959,0.056296
1329.7278,0.056077
1330.6596,0.056112
1331.5914,0.056160
1332.5233,0.055932
1333.4551,0.055426
1334.3869,0.055004
1335.3188,0.054622
1336.2506,0.053990
1337.1824,0.053724
1338.1143,0.053750
1339.0461,0.053622
1339.9780,0.053700
1340.9098,0.054107
1341.8416,0.053692
1342.7735,0.052637
1343.7053,0.051976
1344.6371,0.051692
1345.5690,0.051375
1346.5008,0.051004
1347.4326,0.050673
1348.3645,0.050399
1349.2963,0.050154
1350.2281,0.049763
1351.1600,0.049465
1352.0918,0.049525
1353.0236,0.049696
1353.9555,0.049427
1354.8873,0.049217
1355.8191,0.049452
1356.7510,0.049346
1357.6828,0.049043
1358.6146,0.049059
1359.5465,0.048813
1360.4783,0.048377
1361.4101,0.048580
1362.3420,0.049333
1363.2738,0.050136
1364.2056,0.051234
1365.1375,0.050945
1366.0693,0.050675
1367.0012,0.051128
1367.9330,0.051529
1368.8648,0.052236
1369.7967,0.053150
1370.7285,0.053840
1371.6603,0.054775
1372.5922,0.055946
1373.5240,0.057383
1374.4558,0.059480
1375.3877,0.061803
1376.3195,0.063221
1377.2513,0.063627
1378.1832,0.064118
1379.1150,0.064990
1380.0468,0.065660
1380.9787,0.066136
1381.9105,0.066378
1382.8423,0.066821
1383.7742,0.067049
1384.7060,0.066644
1385.6378,0.066278
1386.5697,0.066217
1387.5015,0.066782
1388.4333,0.067525
1389.3652,0.066850
1390.2970,0.065443
1391.2288,0.064512
1392.1607,0.063759
1393.0925,0.062775
1394.0244,0.062031
1394.9562,0.062609
1395.8880,0.064058
1396.8199,0.063876
1397.7517,0.062940
1398.6835,0.062896
1399.6154,0.063866
1400.5472,0.064796
1401.4790,0.064115
1402.4109,0.063387
1403.3427,0.063352
1404.2745,0.063502
1405.2064,0.064042
1406.1382,0.064813
1407.0700,0.064745
1408.0019,0.064685
1408.9337,0.064882
1409.8655,0.064962
1410.7974,0.064927
1411.7292,0.065066
1412.6610,0.065438
1413.5929,0.065394
1414.5247,0.065009
1415.4565,0.064615
1416.3884,0.064423
1417.3202,0.064448
1418.2520,0.064589
1419.1839,0.065184
1420.1157,0.067255
1421.0476,0.067566
1421.9794,0.065046
1422.9112,0.063643
1423.8431,0.063140
1424.7749,0.063633
1425.7067,0.063879
1426.6386,0.063021
1427.5704,0.061884
1428.5022,0.060963
1429.4341,0.060266
1430.3659,0.060229
1431.2977,0.060680
1432.2296,0.059745
1433.1614,0.058421
1434.0932,0.057799
1435.0251,0.057010
1435.9569,0.056194
1436.8887,0.056841
1437.8206,0.058996
1438.7524,0.058615
1439.6842,0.056942
1440.6161,0.056193
1441.5479,0.056456
1442.4797,0.056913
1443.4116,0.056942
1444.3434,0.056722
1445.2752,0.056882
1446.2071,0.057684
1447.1389,0.058604
1448.0707,0.059806
1449.0026,0.061820
1449.9344,0.062721
1450.8663,0.062112
1451.7981,0.061700
1452.7299,0.061881
1453.6618,0.061767
1454.5936,0.060495
1455.5254,0.059300
1456.4573,0.059264
1457.3891,0.060149
1458.3209,0.060944
1459.2528,0.059710
1460.1846,0.057321
1461.1164,0.054442
1462.0483,0.052001
1462.9801,0.050496
1463.9119,0.049374
1464.8438,0.048666
1465.7756,0.048689
1466.7074,0.048103
1467.6393,0.046719
1468.5711,0.045494
1469.5029,0.044425
1470.4348,0.043832
1471.3666,0.043562
1472.2984,0.043419
1473.2303,0.044207
1474.1621,0.044941
1475.0939,0.044693
1476.0258,0.044483
1476.9576,0.045063
1477.8895,0.045535
1478.8213,0.045007
1479.7531,0.044649
1480.6850,0.044567
1481.6168,0.044826
1482.5486,0.045469
1483.4805,0.045270
1484.4123,0.044532
1485.3441,0.044115
1486.2760,0.043622
1487.2078,0.043400
1488.1396,0.043767
1489.0715,0.043657
1490.0033,0.043040
1490.9351,0.043279
1491.8670,0.043146
1492.7988,0.041575
1493.7306,0.040228
1494.6625,0.039569
1495.5943,0.039116
1496.5261,0.039403
1497.4580,0.040102
1498.3898,0.039870
1499.3216,0.040044
1500.2535,0.039950
1501.1853,0.038820
1502.1171,0.038484
1503.0490,0.038360
1503.9808,0.037612
1504.9127,0.036612
1505.8445,0.036451
1506.7763,0.038191
1507.7082,0.040628
1508.6400,0.040530
1509.5718,0.039930
1510.5037,0.039096
1511.4355,0.038251
1512.3673,0.037804
1513.2992,0.038197
1514.2310,0.038373
1515.1628,0.037652
1516.0947,0.037145
1517.0265,0.037412
1517.9583,0.038324
1518.8902,0.038501
1519.8220,0.037496
1520.7538,0.037081
1521.6857,0.038661
1522.6175,0.040062
1523.5493,0.039326
1524.4812,0.038580
1525.4130,0.038389
1526.3448,0.039059
1527.2767,0.039669
1528.2085,0.039213
1529.1403,0.038906
1530.0722,0.038877
1531.0040,0.038199
1531.9359,0.037783
1532.8677,0.038267
1533.7995,0.038828
1534.7314,0.039983
1535.6632,0.039928
1536.5950,0.038788
1537.5269,0.038028
1538.4587,0.037566
1539.3905,0.037338
1540.3224,0.039045
1541.2542,0.041446
1542.1860,0.041400
1543.1179,0.041218
1544.0497,0.040946
1544.9815,0.040756
1545.9134,0.041039
1546.8452,0.040873
1547.7770,0.040273
1548.7089,0.039978
1549.6407,0.040072
1550.5725,0.041194
1551.5044,0.042291
1552.4362,0.041564
1553.3680,0.040349
1554.2999,0.039841
1555.2317,0.040567
1556.1635,0.041171
1557.0954,0.040832
1558.0272,0.040930
1558.9591,0.043184
1559.8909,0.047908
1560.8227,0.050100
1561.7546,0.047749
1562.6864,0.044955
1563.6182,0.043918
1564.5501,0.043818
1565.4819,0.044473
1566.4137,0.045290
1567.3456,0.045022
1568.2774,0.044519
1569.2092,0.044746
1570.1411,0.046761
1571.0729,0.048780
1572.0047,0.047739
1572.9366,0.046386
1573.8684,0.046160
1574.8002,0.046674
1575.7321,0.047795
1576.6639,0.050460
1577.5957,0.053489
1578.5276,0.052869
1579.4594,0.051565
1580.3912,0.051472
1581.3231,0.051864
1582.2549,0.052492
1583.1867,0.053200
1584.1186,0.053664
1585.0504,0.054210
1585.9822,0.054838
1586.9141,0.055612
1587.8459,0.056458
1588.7778,0.057215
1589.7096,0.058018
1590.6414,0.058681
1591.5733,0.059433
1592.5051,0.060464
1593.4369,0.061572
1594.3688,0.062517
1595.3006,0.063628
1596.2324,0.064990
1597.1643,0.066049
