Wavenumber,Intensity
650.4205,0.367248
651.3523,0.372059
652.2841,0.382727
653.2160,0.382783
654.1478,0.384637
655.0796,0.393975
656.0115,0.380540
656.9433,0.368932
657.8751,0.378675
658.8070,0.375703
659.7388,0.366227
660.6706,0.367563
661.6025,0.362687
662.5343,0.355719
663.4661,0.366488
664.3980,0.380274
665.3298,0.367500
666.2616,0.355376
667.1935,0.368193
668.1253,0.397822
669.0571,0.398268
669.9890,0.383182
670.9208,0.371730
671.8526,0.361816
672.7845,0.358162
673.7163,0.355325
674.6481,0.352034
675.5800,0.354405
676.5118,0.357641
677.4437,0.357324
678.3755,0.354271
679.3073,0.352999
680.2392,0.347990
681.1710,0.339861
682.1028,0.336878
683.0347,0.338692
683.9665,0.338512
684.8983,0.340889
685.8302,0.345918
686.7620,0.343313
687.6938,0.335896
688.6257,0.335012
689.5575,0.334997
690.4893,0.329822
691.4212,0.329308
692.3530,0.333594
693.2848,0.331105
694.2167,0.328189
695.1485,0.325445
696.0803,0.325253
697.0122,0.324905
697.9440,0.324914
698.8758,0.323210
699.8077,0.318802
700.7395,0.318055
701.6713,0.316811
702.6032,0.312773
703.5350,0.313772
704.4669,0.314949
705.3987,0.311283
706.3305,0.309451
707.2624,0.310634
708.1942,0.310276
709.1260,0.309969
710.0579,0.308704
710.9897,0.307489
711.9215,0.307830
712.8534,0.307388
713.7852,0.304068
714.7170,0.300245
715.6489,0.295544
716.5807,0.293159
717.5125,0.296441
718.4444,0.297256
719.3762,0.295336
720.3080,0.294797
721.2399,0.292434
722.1717,0.292213
723.1035,0.290171
724.0354,0.284601
724.9672,0.283017
725.8990,0.284503
726.8309,0.284405
727.7627,0.282562
728.6945,0.281389
729.6264,0.279948
730.5582,0.276785
731.4901,0.276401
732.4219,0.276914
733.3537,0.277921
734.2856,0.278521
735.2174,0.274662
736.1492,0.271759
737.0811,0.273081
738.0129,0.271971
738.9447,0.268637
739.8766,0.264967
740.8084,0.261869
741.7402,0.260725
742.6721,0.261577
743.6039,0.260295
744.5357,0.258625
745.4676,0.256567
746.3994,0.255026
747.3312,0.253534
748.2631,0.253397
749.1949,0.254826
750.1267,0.253438
751.0586,0.249711
751.9904,0.249018
752.9222,0.249478
753.8541,0.248104
754.7859,0.245675
755.7177,0.244674
756.6496,0.243258
757.5814,0.241636
758.5132,0.240222
759.4451,0.238606
760.3769,0.236024
761.3088,0.234590
762.2406,0.235039
763.1724,0.235062
764.1043,0.233399
765.0361,0.232807
765.9679,0.231702
766.8998,0.229687
767.8316,0.227668
768.7634,0.227175
769.6953,0.226196
770.6271,0.225331
771.5589,0.225289
772.4908,0.223076
773.4226,0.219543
774.3544,0.218133
775.2863,0.217365
776.2181,0.215039
777.1499,0.212717
778.0818,0.212811
779.0136,0.213889
779.9454,0.213699
780.8773,0.211568
781.8091,0.208351
782.7409,0.206943
783.6728,0.207478
784.6046,0.206919
785.5364,0.203884
786.4683,0.201418
787.4001,0.201414
788.3320,0.200292
789.2638,0.199103
790.1956,0.198666
791.1275,0.198330
792.0593,0.196682
792.9911,0.193483
793.9230,0.191158
794.8548,0.190510
795.7866,0.190804
796.7185,0.190813
797.6503,0.189914
798.5821,0.188807
799.5140,0.187786
800.4458,0.185801
801.3776,0.183911
802.3095,0.183862
803.2413,0.183448
804.1731,0.182960
805.1050,0.180920
806.0368,0.178553
806.9686,0.178377
807.9005,0.178923
808.8323,0.177566
809.7641,0.174664
810.6960,0.172563
811.6278,0.171300
812.5596,0.170553
813.4915,0.169130
814.4233,0.166615
815.3552,0.165465
816.2870,0.165189
817.2188,0.164213
818.1507,0.162147
819.0825,0.160507
820.0143,0.159328
820.9462,0.158447
821.8780,0.157641
822.8098,0.156838
823.7417,0.155784
824.6735,0.154170
825.6053,0.152192
826.5372,0.151325
827.4690,0.150430
828.4008,0.150113
829.3327,0.149943
830.2645,0.148846
831.1963,0.146970
832.1282,0.145763
833.0600,0.145283
833.9918,0.144631
834.9237,0.142988
835.8555,0.142106
836.7873,0.141615
837.7192,0.140518
838.6510,0.138844
839.5828,0.137571
840.5147,0.136316
841.4465,0.134903
842.3784,0.135014
843.3102,0.135465
844.2420,0.134500
845.1739,0.133496
846.1057,0.131771
847.0375,0.130182
847.9694,0.129702
848.9012,0.129446
849.8330,0.128748
850.7649,0.128050
851.6967,0.127056
852.6285,0.126594
853.5604,0.126147
854.4922,0.124752
855.4240,0.123885
856.3559,0.123833
857.2877,0.123119
858.2195,0.122237
859.1514,0.121593
860.0832,0.121104
861.0150,0.121040
861.9469,0.121697
862.8787,0.121683
863.8105,0.121285
864.7424,0.120931
865.6742,0.121170
866.6060,0.121587
867.5379,0.122446
868.4697,0.124244
869.4016,0.126837
870.3334,0.129405
871.2652,0.131816
872.1971,0.134549
873.1289,0.138470
874.0607,0.142787
874.9926,0.147091
875.9244,0.150599
876.8562,0.153478
877.7881,0.154767
878.7199,0.153997
879.6517,0.150932
880.5836,0.146199
881.5154,0.140483
882.4472,0.134225
883.3791,0.127693
884.3109,0.121799
885.2427,0.116567
886.1746,0.112018
887.1064,0.107868
888.0382,0.103793
888.9701,0.100403
889.9019,0.097191
890.8337,0.095040
891.7656,0.093592
892.6974,0.091723
893.6292,0.089900
894.5611,0.088925
895.4929,0.087680
896.4247,0.086339
897.3566,0.085055
898.2884,0.084318
899.2203,0.084321
900.1521,0.083851
901.0839,0.082849
902.0158,0.081927
902.9476,0.081075
903.8794,0.080039
904.8113,0.079138
905.7431,0.078546
906.6749,0.078087
907.6068,0.077608
908.5386,0.077074
909.4704,0.076332
910.4023,0.075621
911.3341,0.075478
912.2659,0.074881
913.1978,0.073832
914.1296,0.073323
915.0614,0.073196
915.9933,0.072751
916.9251,0.072455
917.8569,0.072139
918.7888,0.071281
919.7206,0.070496
920.6524,0.070118
921.5843,0.069801
922.5161,0.069290
923.4479,0.068936
924.3798,0.068560
925.3116,0.068040
926.2435,0.067675
927.1753,0.067303
928.1071,0.066601
929.0390,0.066157
929.9708,0.065970
930.9026,0.065918
931.8345,0.065764
932.7663,0.065337
933.6981,0.065056
934.6300,0.064641
935.5618,0.064335
936.4936,0.063769
937.4255,0.063020
938.3573,0.062881
939.2891,0.062949
940.2210,0.062756
941.1528,0.062142
942.0846,0.061731
943.0165,0.061601
943.9483,0.061661
944.8801,0.061268
945.8120,0.060928
946.7438,0.060659
947.6756,0.060473
948.6075,0.059801
949.5393,0.059229
950.4711,0.059259
951.4030,0.059009
952.3348,0.058748
953.2667,0.058720
954.1985,0.058230
955.1303,0.057917
956.0622,0.057891
956.9940,0.057754
957.9258,0.057481
958.8577,0.057276
959.7895,0.057220
960.7213,0.056953
961.6532,0.057020
962.5850,0.057104
963.5168,0.056898
964.4487,0.056756
965.3805,0.056368
966.3123,0.056200
967.2442,0.056205
968.1760,0.055880
969.1078,0.055620
970.0397,0.055420
970.9715,0.055303
971.9033,0.055190
972.8352,0.055156
973.7670,0.054897
974.6988,0.054960
975.6307,0.054940
976.5625,0.054533
977.4943,0.054676
978.4262,0.054826
979.3580,0.054680
980.2899,0.054402
981.2217,0.054191
982.1535,0.054272
983.0854,0.054392
984.0172,0.054498
984.9490,0.054559
985.8809,0.054392
986.8127,0.054070
987.7445,0.053829
988.6764,0.054243
989.6082,0.054610
990.5400,0.054315
991.4719,0.054016
992.4037,0.054132
993.3355,0.054332
994.2674,0.054471
995.1992,0.054487
996.1310,0.054520
997.0629,0.054582
997.9947,0.054768
998.9265,0.054958
999.8584,0.055090
1000.7902,0.055037
1001.7220,0.055117
1002.6539,0.055569
1003.5857,0.055926
1004.5175,0.056035
1005.4494,0.056104
1006.3812,0.056228
1007.3131,0.056577
1008.2449,0.057051
1009.1767,0.057478
1010.1086,0.058012
1011.0404,0.058618
1011.9722,0.059076
1012.9041,0.059519
1013.8359,0.059898
1014.7677,0.060459
1015.6996,0.061481
1016.6314,0.062401
1017.5632,0.063095
1018.4951,0.064282
1019.4269,0.065456
1020.3587,0.066468
1021.2906,0.067903
1022.2224,0.069554
1023.1542,0.071296
1024.0861,0.072904
1025.0179,0.074760
1025.9497,0.077331
1026.8816,0.080242
1027.8134,0.083023
1028.7452,0.086134
1029.6771,0.089945
1030.6089,0.094315
1031.5407,0.099112
1032.4726,0.104723
1033.4044,0.111464
1034.3362,0.119102
1035.2681,0.127871
1036.1999,0.137949
1037.1318,0.149278
1038.0636,0.161339
1038.9954,0.173747
1039.9273,0.186818
1040.8591,0.199718
1041.7909,0.210839
1042.7228,0.219496
1043.6546,0.224948
1044.5864,0.226389
1045.5183,0.223165
1046.4501,0.215823
1047.3819,0.205828
1048.3138,0.193710
1049.2456,0.179848
1050.1774,0.165467
1051.1093,0.151258
1052.0411,0.137809
1052.9729,0.125685
1053.9048,0.114742
1054.8366,0.105070
1055.7684,0.096911
1056.7003,0.090006
1057.6321,0.084133
1058.5639,0.079270
1059.4958,0.075537
1060.4276,0.072840
1061.3594,0.070618
1062.2913,0.068883
1063.2231,0.067618
1064.1550,0.066805
1065.0868,0.066322
1066.0186,0.066197
1066.9505,0.066569
1067.8823,0.067090
1068.8141,0.067660
1069.7460,0.068519
1070.6778,0.069609
1071.6096,0.070813
1072.5415,0.072103
1073.4733,0.073924
1074.4051,0.076198
1075.3370,0.078472
1076.2688,0.080547
1077.2006,0.082565
1078.1325,0.085141
1079.0643,0.087962
1079.9961,0.090451
1080.9280,0.092971
1081.8598,0.095288
1082.7916,0.097097
1083.7235,0.098307
1084.6553,0.099099
1085.5871,0.099410
1086.5190,0.098761
1087.4508,0.097502
1088.3826,0.095670
1089.3145,0.093001
1090.2463,0.089885
1091.1782,0.086631
1092.1100,0.083134
1093.0418,0.079136
1093.9737,0.075238
1094.9055,0.071887
1095.8373,0.068729
1096.7692,0.065687
1097.7010,0.062757
1098.6328,0.060104
1099.5647,0.057922
1100.4965,0.056234
1101.4283,0.054691
1102.3602,0.053492
1103.2920,0.052255
1104.2238,0.050928
1105.1557,0.050073
1106.0875,0.049258
1107.0193,0.048494
1107.9512,0.048078
1108.8830,0.047663
1109.8148,0.047078
1110.7467,0.046643
1111.6785,0.046092
1112.6103,0.045800
1113.5422,0.045683
1114.4740,0.045504
1115.4058,0.045475
1116.3377,0.045408
1117.2695,0.045301
1118.2014,0.045179
1119.1332,0.045119
1120.0650,0.045008
1120.9969,0.044754
1121.9287,0.044857
1122.8605,0.045098
1123.7924,0.045038
1124.7242,0.044923
1125.6560,0.044794
1126.5879,0.044837
1127.5197,0.044778
1128.4515,0.044518
1129.3834,0.044408
1130.3152,0.044409
1131.2470,0.044123
1132.1789,0.044019
1133.1107,0.044113
1134.0425,0.044128
1134.9744,0.043982
1135.9062,0.043740
1136.8380,0.043545
1137.7699,0.043543
1138.7017,0.043502
1139.6335,0.043351
1140.5654,0.043331
1141.4972,0.043332
1142.4290,0.043201
1143.3609,0.042984
1144.2927,0.042730
1145.2246,0.042586
1146.1564,0.042627
1147.0882,0.042839
1148.0201,0.042901
1148.9519,0.042870
1149.8837,0.042991
1150.8156,0.043104
1151.7474,0.042945
1152.6792,0.042696
1153.6111,0.042471
1154.5429,0.042523
1155.4747,0.042687
1156.4066,0.042586
1157.3384,0.042683
1158.2702,0.042885
1159.2021,0.042506
1160.1339,0.042103
1161.0657,0.041886
1161.9976,0.041765
1162.9294,0.041645
1163.8612,0.041395
1164.7931,0.041201
1165.7249,0.041068
1166.6567,0.041034
1167.5886,0.040841
1168.5204,0.040688
1169.4522,0.040850
1170.3841,0.041090
1171.3159,0.040847
1172.2477,0.040617
1173.1796,0.040484
1174.1114,0.040266
1175.0433,0.040285
1175.9751,0.040515
1176.9069,0.040534
1177.8388,0.040629
1178.7706,0.040478
1179.7024,0.040308
1180.6343,0.040439
1181.5661,0.040630
1182.4979,0.040622
1183.4298,0.040395
1184.3616,0.040255
1185.2934,0.040124
1186.2253,0.039873
1187.1571,0.040057
1188.0889,0.040483
1189.0208,0.040506
1189.9526,0.040330
1190.8844,0.040333
1191.8163,0.040632
1192.7481,0.040715
1193.6799,0.040676
1194.6118,0.040595
1195.5436,0.040524
1196.4754,0.040531
1197.4073,0.040529
1198.3391,0.040490
1199.2709,0.040676
1200.2028,0.040706
1201.1346,0.040573
1202.0665,0.040520
1202.9983,0.040718
1203.9301,0.040766
1204.8620,0.040650
1205.7938,0.040655
1206.7256,0.040761
1207.6575,0.040629
1208.5893,0.040761
1209.5211,0.040916
1210.4530,0.040695
1211.3848,0.040790
1212.3166,0.041069
1213.2485,0.041087
1214.1803,0.041166
1215.1121,0.040885
1216.0440,0.040755
1216.9758,0.040857
1217.9076,0.041045
1218.8395,0.041128
1219.7713,0.041225
1220.7031,0.041326
1221.6350,0.041432
1222.5668,0.041293
1223.4986,0.041352
1224.4305,0.041344
1225.3623,0.041356
1226.2941,0.041492
1227.2260,0.041657
1228.1578,0.041585
1229.0897,0.041513
1230.0215,0.041717
1230.9533,0.041800
1231.8852,0.041803
1232.8170,0.041830
1233.7488,0.041877
1234.6807,0.041949
1235.6125,0.041965
1236.5443,0.042120
1237.4762,0.042347
1238.4080,0.042414
1239.3398,0.042227
1240.2717,0.042384
1241.2035,0.042745
1242.1353,0.042973
1243.0672,0.042993
1243.9990,0.042939
1244.9308,0.042918
1245.8627,0.042997
1246.7945,0.043230
1247.7263,0.043484
1248.6582,0.043690
1249.5900,0.043708
1250.5218,0.043821
1251.4537,0.044176
1252.3855,0.044355
1253.3173,0.044589
1254.2492,0.044808
1255.1810,0.044901
1256.1129,0.045178
1257.0447,0.045674
1257.9765,0.045719
1258.9084,0.045833
1259.8402,0.046218
1260.7720,0.046890
1261.7039,0.047465
1262.6357,0.047629
1263.5675,0.048239
1264.4994,0.048851
1265.4312,0.049164
1266.3630,0.049378
1267.2949,0.049831
1268.2267,0.050460
1269.1585,0.050883
1270.0904,0.051066
1271.0222,0.051386
1271.9540,0.052277
1272.8859,0.052742
1273.8177,0.052553
1274.7495,0.052217
1275.6814,0.052220
1276.6132,0.052289
1277.5450,0.052202
1278.4769,0.051827
1279.4087,0.051208
1280.3405,0.050689
1281.2724,0.050594
1282.2042,0.050417
1283.1361,0.049867
1284.0679,0.049553
1284.9997,0.049321
1285.9316,0.049240
1286.8634,0.048935
1287.7952,0.048632
1288.7271,0.048911
1289.6589,0.049097
1290.5907,0.049128
1291.5226,0.049082
1292.4544,0.049131
1293.3862,0.049142
1294.3181,0.049208
1295.2499,0.049439
1296.1817,0.049490
1297.1136,0.049627
1298.0454,0.049955
1298.9772,0.050267
1299.9091,0.050618
1300.8409,0.050777
1301.7727,0.050894
1302.7046,0.051138
1303.6364,0.051174
1304.5682,0.051065
1305.5001,0.051285
1306.4319,0.051622
1307.3637,0.051980
1308.2956,0.052120
1309.2274,0.052313
1310.1592,0.052588
1311.0911,0.052477
1312.0229,0.052661
1312.9548,0.053302
1313.8866,0.053818
1314.8184,0.053666
1315.7503,0.053483
1316.6821,0.053677
1317.6139,0.054061
1318.5458,0.054270
1319.4776,0.054508
1320.4094,0.055030
1321.3413,0.055034
1322.2731,0.054765
1323.2049,0.054479
1324.1368,0.054471
1325.0686,0.054493
1326.0004,0.054385
1326.9323,0.054420
1327.8641,0.054511
1328.7959,0.054302
1329.7278,0.054482
1330.6596,0.054640
1331.5914,0.054246
1332.5233,0.053999
1333.4551,0.053688
1334.3869,0.053248
1335.3188,0.052768
1336.2506,0.052364
1337.1824,0.052150
1338.1143,0.052155
1339.0461,0.051919
1339.9780,0.052429
1340.9098,0.053167
1341.8416,0.052782
1342.7735,0.051646
1343.7053,0.050942
1344.6371,0.050548
1345.5690,0.050057
1346.5008,0.049828
1347.4326,0.049783
1348.3645,0.049664
1349.2963,0.049563
1350.2281,0.049400
1351.1600,0.049206
1352.0918,0.048985
1353.0236,0.048634
1353.9555,0.048608
1354.8873,0.048709
1355.8191,0.048827
1356.7510,0.048863
1357.6828,0.048713
1358.6146,0.048580
1359.5465,0.048407
1360.4783,0.048136
1361.4101,0.048260
1362.3420,0.048737
1363.2738,0.049335
1364.2056,0.050087
1365.1375,0.049977
1366.0693,0.049586
1367.0012,0.049914
1367.9330,0.050318
1368.8648,0.050681
1369.7967,0.051463
1370.7285,0.052084
1371.6603,0.052567
1372.5922,0.053427
1373.5240,0.054618
1374.4558,0.056565
1375.3877,0.058724
1376.3195,0.059477
1377.2513,0.059613
1378.1832,0.060086
1379.1150,0.060643
1380.0468,0.061106
1380.9787,0.061514
1381.9105,0.061944
1382.8423,0.062661
1383.7742,0.063185
1384.7060,0.062907
1385.6378,0.062441
1386.5697,0.062272
1387.5015,0.062678
1388.4333,0.063612
1389.3652,0.063271
1390.2970,0.062088
1391.2288,0.060987
1392.1607,0.060159
1393.0925,0.059605
1394.0244,0.059139
1394.9562,0.059478
1395.8880,0.060821
1396.8199,0.060960
1397.7517,0.060076
1398.6835,0.059855
1399.6154,0.060929
1400.5472,0.061897
1401.4790,0.061052
1402.4109,0.060194
1403.3427,0.060083
1404.2745,0.060352
1405.2064,0.060744
1406.1382,0.061520
1407.0700,0.061994
1408.0019,0.061896
1408.9337,0.061902
1409.8655,0.061768
1410.7974,0.061679
1411.7292,0.061672
1412.6610,0.061870
1413.5929,0.062316
1414.5247,0.062189
1415.4565,0.061356
1416.3884,0.060854
1417.3202,0.060925
1418.2520,0.061403
1419.1839,0.062302
1420.1157,0.063658
1421.0476,0.063824
1421.9794,0.062152
1422.9112,0.060772
1423.8431,0.060251
1424.7749,0.060996
1425.7067,0.060949
1426.6386,0.059668
1427.5704,0.058818
1428.5022,0.058507
1429.4341,0.058134
1430.3659,0.057926
1431.2977,0.058173
1432.2296,0.057134
1433.1614,0.055582
1434.0932,0.054819
1435.0251,0.054281
1435.9569,0.053860
1436.8887,0.054548
1437.8206,0.057225
1438.7524,0.057340
1439.6842,0.055540
1440.6161,0.054631
1441.5479,0.054433
1442.4797,0.054437
1443.4116,0.054147
1444.3434,0.054019
1445.2752,0.054620
1446.2071,0.055515
1447.1389,0.056349
1448.0707,0.057394
1449.0026,0.059043
1449.9344,0.059683
1450.8663,0.059513
1451.7981,0.059444
1452.7299,0.059124
1453.6618,0.058676
1454.5936,0.057801
1455.5254,0.057512
1456.4573,0.058180
1457.3891,0.059231
1458.3209,0.059922
1459.2528,0.058507
1460.1846,0.055832
1461.1164,0.053154
1462.0483,0.051404
1462.9801,0.050213
1463.9119,0.049218
1464.8438,0.048649
1465.7756,0.048944
1466.7074,0.048729
1467.6393,0.047298
1468.5711,0.045852
1469.5029,0.045113
1470.4348,0.044657
1471.3666,0.044176
1472.2984,0.044688
1473.2303,0.046325
1474.1621,0.046764
1475.0939,0.046172
1476.0258,0.045153
1476.9576,0.045422
1477.8895,0.046637
1478.8213,0.046294
1479.7531,0.045744
1480.6850,0.045772
1481.6168,0.046130
1482.5486,0.046524
1483.4805,0.046251
1484.4123,0.045656
1485.3441,0.045185
1486.2760,0.044742
1487.2078,0.044495
1488.1396,0.044919
1489.0715,0.044751
1490.0033,0.044094
1490.9351,0.044859
1491.8670,0.045598
1492.7988,0.044444
1493.7306,0.043030
1494.6625,0.042009
1495.5943,0.041071
1496.5261,0.041230
1497.4580,0.042573
1498.3898,0.042580
1499.3216,0.042157
1500.2535,0.042282
1501.1853,0.041404
1502.1171,0.040976
1503.0490,0.041100
1503.9808,0.040347
1504.9127,0.039129
1505.8445,0.038769
1506.7763,0.041011
1507.7082,0.045342
1508.6400,0.045524
1509.5718,0.043691
1510.5037,0.042684
1511.4355,0.042390
1512.3673,0.041766
1513.2992,0.041578
1514.2310,0.041342
1515.1628,0.040730
1516.0947,0.040893
1517.0265,0.041151
1517.9583,0.041013
1518.8902,0.040727
1519.8220,0.040312
1520.7538,0.040545
1521.6857,0.041849
1522.6175,0.043614
1523.5493,0.043214
1524.4812,0.041959
1525.4130,0.041100
1526.3448,0.042197
1527.2767,0.042876
1528.2085,0.042477
1529.1403,0.042814
1530.0722,0.042841
1531.0040,0.042084
1531.9359,0.041489
1532.8677,0.041629
1533.7995,0.042223
1534.7314,0.043151
1535.6632,0.043541
1536.5950,0.042879
1537.5269,0.042070
1538.4587,0.041019
1539.3905,0.040963
1540.3224,0.044079
1541.2542,0.046979
1542.1860,0.045754
1543.1179,0.046046
1544.0497,0.046547
1544.9815,0.045710
1545.9134,0.045703
1546.8452,0.045707
1547.7770,0.045288
1548.7089,0.044807
1549.6407,0.044653
1550.5725,0.045278
1551.5044,0.045698
1552.4362,0.045364
1553.3680,0.044891
1554.2999,0.044218
1555.2317,0.044805
1556.1635,0.045436
1557.0954,0.044469
1558.0272,0.044542
1558.9591,0.048536
1559.8909,0.055197
1560.8227,0.054312
1561.7546,0.052267
1562.6864,0.050609
1563.6182,0.049365
1564.5501,0.048754
1565.4819,0.049090
1566.4137,0.050060
1567.3456,0.050434
1568.2774,0.050420
1569.2092,0.050628
1570.1411,0.052203
1571.0729,0.054673
1572.0047,0.054291
1572.9366,0.052847
1573.8684,0.052368
1574.8002,0.052841
1575.7321,0.053552
1576.6639,0.055877
1577.5957,0.059459
1578.5276,0.059368
1579.4594,0.058112
1580.3912,0.057909
1581.3231,0.058131
1582.2549,0.058908
1583.1867,0.059606
1584.1186,0.060214
1585.0504,0.061196
1585.9822,0.062259
1586.9141,0.062822
1587.8459,0.063050
1588.7778,0.063850
1589.7096,0.065071
1590.6414,0.066203
1591.5733,0.067327
1592.5051,0.068351
1593.4369,0.069243
1594.3688,0.070231
1595.3006,0.071641
1596.2324,0.073008
1597.1643,0.074151
