Wavenumber,Intensity
650.4205,0.369532
651.3523,0.380972
652.2841,0.386142
653.2160,0.385190
654.1478,0.386919
655.0796,0.391205
656.0115,0.379873
656.9433,0.374393
657.8751,0.383443
658.8070,0.389573
659.7388,0.378934
660.6706,0.373353
661.6025,0.373141
662.5343,0.374188
663.4661,0.373008
664.3980,0.366186
665.3298,0.360992
666.2616,0.364190
667.1935,0.368951
668.1253,0.370663
669.0571,0.369329
669.9890,0.369447
670.9208,0.367561
671.8526,0.361603
672.7845,0.360817
673.7163,0.362389
674.6481,0.353376
675.5800,0.352436
676.5118,0.355424
677.4437,0.359257
678.3755,0.357971
679.3073,0.354966
680.2392,0.346804
681.1710,0.344068
682.1028,0.346029
683.0347,0.350299
683.9665,0.350486
684.8983,0.347425
685.8302,0.345845
686.7620,0.343028
687.6938,0.338960
688.6257,0.344085
689.5575,0.343506
690.4893,0.337922
691.4212,0.336939
692.3530,0.339883
693.2848,0.337016
694.2167,0.334120
695.1485,0.332464
696.0803,0.328276
697.0122,0.327264
697.9440,0.328833
698.8758,0.327261
699.8077,0.323973
700.7395,0.315593
701.6713,0.316652
702.6032,0.319739
703.5350,0.321795
704.4669,0.323912
705.3987,0.321266
706.3305,0.317289
707.2624,0.314765
708.1942,0.311532
709.1260,0.312682
710.0579,0.312006
710.9897,0.308546
711.9215,0.307816
712.8534,0.306651
713.7852,0.304269
714.7170,0.304317
715.6489,0.301809
716.5807,0.298618
717.5125,0.298947
718.4444,0.300273
719.3762,0.296769
720.3080,0.295454
721.2399,0.293802
722.1717,0.293077
723.1035,0.292045
724.0354,0.292495
724.9672,0.293265
725.8990,0.293253
726.8309,0.291409
727.7627,0.285711
728.6945,0.284842
729.6264,0.286035
730.5582,0.282186
731.4901,0.277186
732.4219,0.276386
733.3537,0.278109
734.2856,0.275440
735.2174,0.275691
736.1492,0.273632
737.0811,0.270053
738.0129,0.271796
738.9447,0.272148
739.8766,0.268515
740.8084,0.267505
741.7402,0.268567
742.6721,0.270010
743.6039,0.268702
744.5357,0.265536
745.4676,0.262565
746.3994,0.260921
747.3312,0.256995
748.2631,0.256282
749.1949,0.257835
750.1267,0.255155
751.0586,0.251180
751.9904,0.250742
752.9222,0.251302
753.8541,0.250344
754.7859,0.249124
755.7177,0.247513
756.6496,0.246938
757.5814,0.245871
758.5132,0.242828
759.4451,0.242041
760.3769,0.240594
761.3088,0.239790
762.2406,0.238867
763.1724,0.237864
764.1043,0.236119
765.0361,0.234201
765.9679,0.232828
766.8998,0.233361
767.8316,0.232774
768.7634,0.231482
769.6953,0.230499
770.6271,0.227914
771.5589,0.225770
772.4908,0.224038
773.4226,0.221959
774.3544,0.220818
775.2863,0.219491
776.2181,0.217926
777.1499,0.217119
778.0818,0.218093
779.0136,0.218165
779.9454,0.216589
780.8773,0.214191
781.8091,0.212835
782.7409,0.211706
783.6728,0.210005
784.6046,0.208183
785.5364,0.206095
786.4683,0.204140
787.4001,0.204011
788.3320,0.203616
789.2638,0.201832
790.1956,0.199338
791.1275,0.198145
792.0593,0.197169
792.9911,0.196675
793.9230,0.195629
794.8548,0.195528
795.7866,0.195641
796.7185,0.194446
797.6503,0.192403
798.5821,0.191071
799.5140,0.190507
800.4458,0.188571
801.3776,0.186803
802.3095,0.186898
803.2413,0.186252
804.1731,0.185915
805.1050,0.183091
806.0368,0.180710
806.9686,0.180610
807.9005,0.179132
808.8323,0.177300
809.7641,0.177075
810.6960,0.175810
811.6278,0.173103
812.5596,0.171356
813.4915,0.170974
814.4233,0.169546
815.3552,0.168596
816.2870,0.167403
817.2188,0.166332
818.1507,0.164564
819.0825,0.163335
820.0143,0.161835
820.9462,0.161357
821.8780,0.159766
822.8098,0.157770
823.7417,0.157840
824.6735,0.157413
825.6053,0.155095
826.5372,0.153443
827.4690,0.152997
828.4008,0.151644
829.3327,0.150535
830.2645,0.149887
831.1963,0.148599
832.1282,0.148019
833.0600,0.147423
833.9918,0.146082
834.9237,0.144404
835.8555,0.143633
836.7873,0.142149
837.7192,0.141052
838.6510,0.141149
839.5828,0.140514
840.5147,0.139457
841.4465,0.138458
842.3784,0.137357
843.3102,0.136186
844.2420,0.134171
845.1739,0.132694
846.1057,0.132787
847.0375,0.132936
847.9694,0.131962
848.9012,0.131131
849.8330,0.130197
850.7649,0.129151
851.6967,0.128092
852.6285,0.127489
853.5604,0.127008
854.4922,0.126372
855.4240,0.125944
856.3559,0.125403
857.2877,0.124522
858.2195,0.124076
859.1514,0.123454
860.0832,0.122268
861.0150,0.122051
861.9469,0.122505
862.8787,0.122868
863.8105,0.122667
864.7424,0.122499
865.6742,0.123941
866.6060,0.125069
867.5379,0.125460
868.4697,0.126681
869.4016,0.129139
870.3334,0.132060
871.2652,0.135280
872.1971,0.139147
873.1289,0.142947
874.0607,0.147544
874.9926,0.152272
875.9244,0.155992
876.8562,0.159280
877.7881,0.160655
878.7199,0.159464
879.6517,0.156094
880.5836,0.151093
881.5154,0.145221
882.4472,0.138108
883.3791,0.131042
884.3109,0.124588
885.2427,0.118355
886.1746,0.113480
887.1064,0.109234
888.0382,0.105423
888.9701,0.102241
889.9019,0.099364
890.8337,0.096598
891.7656,0.094408
892.6974,0.092890
893.6292,0.091471
894.5611,0.089878
895.4929,0.088594
896.4247,0.087310
897.3566,0.086451
898.2884,0.085474
899.2203,0.084355
900.1521,0.083284
901.0839,0.082372
902.0158,0.081787
902.9476,0.081018
903.8794,0.080153
904.8113,0.079583
905.7431,0.079096
906.6749,0.078453
907.6068,0.077540
908.5386,0.076634
909.4704,0.076172
910.4023,0.075904
911.3341,0.075221
912.2659,0.074443
913.1978,0.073767
914.1296,0.073445
915.0614,0.072797
915.9933,0.072188
916.9251,0.071756
917.8569,0.071279
918.7888,0.070695
919.7206,0.070125
920.6524,0.069706
921.5843,0.069524
922.5161,0.069209
923.4479,0.068967
924.3798,0.068531
925.3116,0.067942
926.2435,0.067195
927.1753,0.066466
928.1071,0.066209
929.0390,0.065906
929.9708,0.065279
930.9026,0.064891
931.8345,0.064655
932.7663,0.064584
933.6981,0.064097
934.6300,0.063528
935.5618,0.063774
936.4936,0.063603
937.4255,0.062901
938.3573,0.062628
939.2891,0.062604
940.2210,0.062289
941.1528,0.061902
942.0846,0.061452
943.0165,0.061256
943.9483,0.061203
944.8801,0.060821
945.8120,0.060237
946.7438,0.059914
947.6756,0.059735
948.6075,0.059442
949.5393,0.059035
950.4711,0.059042
951.4030,0.059068
952.3348,0.058626
953.2667,0.058151
954.1985,0.057915
955.1303,0.057649
956.0622,0.057372
956.9940,0.057484
957.9258,0.057377
958.8577,0.057135
959.7895,0.057220
960.7213,0.057091
961.6532,0.056856
962.5850,0.056662
963.5168,0.056421
964.4487,0.055782
965.3805,0.055714
966.3123,0.055827
967.2442,0.055692
968.1760,0.055455
969.1078,0.055128
970.0397,0.055047
970.9715,0.055037
971.9033,0.054911
972.8352,0.054737
973.7670,0.054426
974.6988,0.054250
975.6307,0.054092
976.5625,0.053905
977.4943,0.054021
978.4262,0.053923
979.3580,0.053745
980.2899,0.053788
981.2217,0.053701
982.1535,0.053462
983.0854,0.053547
984.0172,0.053634
984.9490,0.053435
985.8809,0.053376
986.8127,0.053332
987.7445,0.053187
988.6764,0.053114
989.6082,0.053044
990.5400,0.052987
991.4719,0.053181
992.4037,0.053165
993.3355,0.053078
994.2674,0.053308
995.1992,0.053530
996.1310,0.053697
997.0629,0.053846
997.9947,0.053559
998.9265,0.053862
999.8584,0.054152
1000.7902,0.054028
1001.7220,0.054143
1002.6539,0.054774
1003.5857,0.054928
1004.5175,0.055117
1005.4494,0.055713
1006.3812,0.056098
1007.3131,0.056363
1008.2449,0.056803
1009.1767,0.057314
1010.1086,0.057642
1011.0404,0.058022
1011.9722,0.058628
1012.9041,0.059512
1013.8359,0.060254
1014.7677,0.060508
1015.6996,0.061101
1016.6314,0.062235
1017.5632,0.063206
1018.4951,0.064160
1019.4269,0.065359
1020.3587,0.066806
1021.2906,0.068282
1022.2224,0.069958
1023.1542,0.071668
1024.0861,0.073665
1025.0179,0.076337
1025.9497,0.079110
1026.8816,0.081698
1027.8134,0.084638
1028.7452,0.088190
1029.6771,0.092294
1030.6089,0.096941
1031.5407,0.102416
1032.4726,0.108892
1033.4044,0.116111
1034.3362,0.124455
1035.2681,0.134244
1036.1999,0.145418
1037.1318,0.157758
1038.0636,0.171033
1038.9954,0.185084
1039.9273,0.199357
1040.8591,0.213055
1041.7909,0.224957
1042.7228,0.233636
1043.6546,0.238967
1044.5864,0.239980
1045.5183,0.236201
1046.4501,0.228166
1047.3819,0.216781
1048.3138,0.203442
1049.2456,0.188909
1050.1774,0.173844
1051.1093,0.158552
1052.0411,0.143824
1052.9729,0.130737
1053.9048,0.118974
1054.8366,0.108514
1055.7684,0.099439
1056.7003,0.091844
1057.6321,0.085417
1058.5639,0.080314
1059.4958,0.076426
1060.4276,0.073301
1061.3594,0.070795
1062.2913,0.068586
1063.2231,0.067079
1064.1550,0.066520
1065.0868,0.066452
1066.0186,0.066215
1066.9505,0.066141
1067.8823,0.066623
1068.8141,0.067418
1069.7460,0.068374
1070.6778,0.069404
1071.6096,0.070958
1072.5415,0.072957
1073.4733,0.074783
1074.4051,0.076717
1075.3370,0.079080
1076.2688,0.081588
1077.2006,0.084336
1078.1325,0.087387
1079.0643,0.090212
1079.9961,0.092873
1080.9280,0.095481
1081.8598,0.098168
1082.7916,0.100542
1083.7235,0.102117
1084.6553,0.103143
1085.5871,0.103564
1086.5190,0.103096
1087.4508,0.101798
1088.3826,0.099709
1089.3145,0.097132
1090.2463,0.093909
1091.1782,0.090013
1092.1100,0.085916
1093.0418,0.081695
1093.9737,0.077591
1094.9055,0.073551
1095.8373,0.069719
1096.7692,0.066280
1097.7010,0.063275
1098.6328,0.060731
1099.5647,0.058503
1100.4965,0.056619
1101.4283,0.054900
1102.3602,0.053053
1103.2920,0.051441
1104.2238,0.050222
1105.1557,0.049178
1106.0875,0.048362
1107.0193,0.047819
1107.9512,0.047282
1108.8830,0.046649
1109.8148,0.046104
1110.7467,0.045628
1111.6785,0.045191
1112.6103,0.044952
1113.5422,0.045041
1114.4740,0.044825
1115.4058,0.044408
1116.3377,0.044217
1117.2695,0.044127
1118.2014,0.043972
1119.1332,0.043960
1120.0650,0.044131
1120.9969,0.044184
1121.9287,0.044231
1122.8605,0.044352
1123.7924,0.044311
1124.7242,0.044146
1125.6560,0.043835
1126.5879,0.043654
1127.5197,0.043673
1128.4515,0.043680
1129.3834,0.043662
1130.3152,0.043664
1131.2470,0.043432
1132.1789,0.043242
1133.1107,0.043215
1134.0425,0.043126
1134.9744,0.042995
1135.9062,0.042977
1136.8380,0.042751
1137.7699,0.042329
1138.7017,0.042175
1139.6335,0.042173
1140.5654,0.042029
1141.4972,0.042124
1142.4290,0.042292
1143.3609,0.042251
1144.2927,0.042099
1145.2246,0.042005
1146.1564,0.042176
1147.0882,0.042119
1148.0201,0.042015
1148.9519,0.042125
1149.8837,0.042016
1150.8156,0.041829
1151.7474,0.041855
1152.6792,0.042064
1153.6111,0.042203
1154.5429,0.042198
1155.4747,0.042256
1156.4066,0.042223
1157.3384,0.042097
1158.2702,0.041853
1159.2021,0.041749
1160.1339,0.041579
1161.0657,0.041149
1161.9976,0.040901
1162.9294,0.041061
1163.8612,0.041203
1164.7931,0.040995
1165.7249,0.040781
1166.6567,0.040505
1167.5886,0.040430
1168.5204,0.040436
1169.4522,0.040106
1170.3841,0.039972
1171.3159,0.040011
1172.2477,0.039949
1173.1796,0.039854
1174.1114,0.039797
1175.0433,0.039760
1175.9751,0.039908
1176.9069,0.039998
1177.8388,0.039726
1178.7706,0.039409
1179.7024,0.039424
1180.6343,0.039767
1181.5661,0.039958
1182.4979,0.039666
1183.4298,0.039589
1184.3616,0.039865
1185.2934,0.039829
1186.2253,0.039761
1187.1571,0.039673
1188.0889,0.039409
1189.0208,0.039535
1189.9526,0.039876
1190.8844,0.039935
1191.8163,0.039903
1192.7481,0.040009
1193.6799,0.039890
1194.6118,0.039776
1195.5436,0.039754
1196.4754,0.039691
1197.4073,0.039826
1198.3391,0.039871
1199.2709,0.039703
1200.2028,0.039771
1201.1346,0.039970
1202.0665,0.040057
1202.9983,0.040160
1203.9301,0.040218
1204.8620,0.040093
1205.7938,0.040000
1206.7256,0.039997
1207.6575,0.040022
1208.5893,0.040050
1209.5211,0.040092
1210.4530,0.040164
1211.3848,0.040217
1212.3166,0.040359
1213.2485,0.040471
1214.1803,0.040316
1215.1121,0.040163
1216.0440,0.040307
1216.9758,0.040478
1217.9076,0.040426
1218.8395,0.040532
1219.7713,0.040717
1220.7031,0.040757
1221.6350,0.040677
1222.5668,0.040580
1223.4986,0.040631
1224.4305,0.040756
1225.3623,0.040768
1226.2941,0.040794
1227.2260,0.040775
1228.1578,0.040814
1229.0897,0.041223
1230.0215,0.041386
1230.9533,0.041145
1231.8852,0.041239
1232.8170,0.041681
1233.7488,0.041626
1234.6807,0.041316
1235.6125,0.041511
1236.5443,0.041777
1237.4762,0.041782
1238.4080,0.041799
1239.3398,0.041958
1240.2717,0.042132
1241.2035,0.042066
1242.1353,0.042118
1243.0672,0.042268
1243.9990,0.042287
1244.9308,0.042338
1245.8627,0.042546
1246.7945,0.042817
1247.7263,0.042967
1248.6582,0.043127
1249.5900,0.043407
1250.5218,0.043655
1251.4537,0.043848
1252.3855,0.043996
1253.3173,0.044169
1254.2492,0.044396
1255.1810,0.044560
1256.1129,0.044840
1257.0447,0.045264
1257.9765,0.045549
1258.9084,0.045718
1259.8402,0.045965
1260.7720,0.046308
1261.7039,0.046865
1262.6357,0.047298
1263.5675,0.047576
1264.4994,0.048120
1265.4312,0.048836
1266.3630,0.049451
1267.2949,0.049942
1268.2267,0.050469
1269.1585,0.051077
1270.0904,0.051534
1271.0222,0.052070
1271.9540,0.052711
1272.8859,0.052955
1273.8177,0.053009
1274.7495,0.053066
1275.6814,0.052943
1276.6132,0.052657
1277.5450,0.052275
1278.4769,0.051947
1279.4087,0.051723
1280.3405,0.051286
1281.2724,0.050759
1282.2042,0.050413
1283.1361,0.050012
1284.0679,0.049700
1284.9997,0.049560
1285.9316,0.049390
1286.8634,0.049073
1287.7952,0.048811
1288.7271,0.048919
1289.6589,0.049106
1290.5907,0.049063
1291.5226,0.049029
1292.4544,0.049185
1293.3862,0.049194
1294.3181,0.049102
1295.2499,0.049524
1296.1817,0.049917
1297.1136,0.050020
1298.0454,0.050204
1298.9772,0.050287
1299.9091,0.050330
1300.8409,0.050368
1301.7727,0.050708
1302.7046,0.051047
1303.6364,0.051092
1304.5682,0.051426
1305.5001,0.051853
1306.4319,0.052000
1307.3637,0.052158
1308.2956,0.052477
1309.2274,0.052780
1310.1592,0.053044
1311.0911,0.053227
1312.0229,0.053357
1312.9548,0.053691
1313.8866,0.054245
1314.8184,0.054640
1315.7503,0.054740
1316.6821,0.054602
1317.6139,0.054563
1318.5458,0.054833
1319.4776,0.055242
1320.4094,0.055728
1321.3413,0.055849
1322.2731,0.055556
1323.2049,0.055345
1324.1368,0.055267
1325.0686,0.055197
1326.0004,0.055208
1326.9323,0.055233
1327.8641,0.055202
1328.7959,0.055155
1329.7278,0.055052
1330.6596,0.054929
1331.5914,0.054751
1332.5233,0.054473
1333.4551,0.054388
1334.3869,0.054285
1335.3188,0.053873
1336.2506,0.053275
1337.1824,0.052842
1338.1143,0.052758
1339.0461,0.052955
1339.9780,0.053214
1340.9098,0.053164
1341.8416,0.052913
1342.7735,0.052382
1343.7053,0.051816
1344.6371,0.051405
1345.5690,0.051050
1346.5008,0.050783
1347.4326,0.050372
1348.3645,0.049943
1349.2963,0.049776
1350.2281,0.049709
1351.1600,0.049613
1352.0918,0.049471
1353.0236,0.049312
1353.9555,0.048993
1354.8873,0.048636
1355.8191,0.048740
1356.7510,0.049007
1357.6828,0.048703
1358.6146,0.048338
1359.5465,0.048236
1360.4783,0.048121
1361.4101,0.048373
1362.3420,0.049023
1363.2738,0.049509
1364.2056,0.050393
1365.1375,0.050806
1366.0693,0.050054
1367.0012,0.049814
1367.9330,0.050226
1368.8648,0.051038
1369.7967,0.052347
1370.7285,0.052825
1371.6603,0.052908
1372.5922,0.053965
1373.5240,0.055388
1374.4558,0.057347
1375.3877,0.059867
1376.3195,0.061159
1377.2513,0.061405
1378.1832,0.061563
1379.1150,0.061886
1380.0468,0.062468
1380.9787,0.063322
1381.9105,0.063878
1382.8423,0.063865
1383.7742,0.063744
1384.7060,0.063640
1385.6378,0.063543
1386.5697,0.063671
1387.5015,0.064362
1388.4333,0.065145
1389.3652,0.064664
1390.2970,0.063158
1391.2288,0.061986
1392.1607,0.061240
1393.0925,0.060491
1394.0244,0.059976
1394.9562,0.060182
1395.8880,0.061423
1396.8199,0.061878
1397.7517,0.061256
1398.6835,0.060988
1399.6154,0.061513
1400.5472,0.062311
1401.4790,0.062091
1402.4109,0.061275
1403.3427,0.060998
1404.2745,0.061211
1405.2064,0.061804
1406.1382,0.062960
1407.0700,0.063254
1408.0019,0.062888
1408.9337,0.062870
1409.8655,0.062890
1410.7974,0.063071
1411.7292,0.063194
1412.6610,0.063201
1413.5929,0.063240
1414.5247,0.062729
1415.4565,0.061881
1416.3884,0.061685
1417.3202,0.062001
1418.2520,0.062266
1419.1839,0.062804
1420.1157,0.064574
1421.0476,0.065587
1421.9794,0.063361
1422.9112,0.061498
1423.8431,0.061372
1424.7749,0.062279
1425.7067,0.062542
1426.6386,0.061101
1427.5704,0.059640
1428.5022,0.059400
1429.4341,0.059158
1430.3659,0.058641
1431.2977,0.058756
1432.2296,0.058346
1433.1614,0.057283
1434.0932,0.056429
1435.0251,0.055772
1435.9569,0.055280
1436.8887,0.055946
1437.8206,0.058557
1438.7524,0.058418
1439.6842,0.056547
1440.6161,0.055737
1441.5479,0.055398
1442.4797,0.055432
1443.4116,0.055558
1444.3434,0.055278
1445.2752,0.055340
1446.2071,0.056074
1447.1389,0.056993
1448.0707,0.058033
1449.0026,0.060026
1449.9344,0.061439
1450.8663,0.060941
1451.7981,0.060685
1452.7299,0.060909
1453.6618,0.060370
1454.5936,0.059367
1455.5254,0.058581
1456.4573,0.058403
1457.3891,0.059410
1458.3209,0.060594
1459.2528,0.059017
1460.1846,0.056989
1461.1164,0.054765
1462.0483,0.052357
1462.9801,0.050779
1463.9119,0.049876
1464.8438,0.049214
1465.7756,0.048805
1466.7074,0.048540
1467.6393,0.047468
1468.5711,0.046336
1469.5029,0.045218
1470.4348,0.044375
1471.3666,0.044070
1472.2984,0.044162
1473.2303,0.045469
1474.1621,0.047132
1475.0939,0.046879
1476.0258,0.045838
1476.9576,0.046021
1477.8895,0.047096
1478.8213,0.046538
1479.7531,0.045953
1480.6850,0.046096
1481.6168,0.046336
1482.5486,0.046526
1483.4805,0.046162
1484.4123,0.045501
1485.3441,0.045141
1486.2760,0.044920
1487.2078,0.044819
1488.1396,0.045254
1489.0715,0.045604
1490.0033,0.045331
1490.9351,0.046016
1491.8670,0.046416
1492.7988,0.044790
1493.7306,0.042827
1494.6625,0.041433
1495.5943,0.040795
1496.5261,0.040843
1497.4580,0.042237
1498.3898,0.042834
1499.3216,0.042394
1500.2535,0.042714
1501.1853,0.042005
1502.1171,0.040797
1503.0490,0.040125
1503.9808,0.039298
1504.9127,0.038692
1505.8445,0.038542
1506.7763,0.039992
1507.7082,0.044859
1508.6400,0.045790
1509.5718,0.043361
1510.5037,0.042134
1511.4355,0.041900
1512.3673,0.041280
1513.2992,0.041082
1514.2310,0.040990
1515.1628,0.040258
1516.0947,0.039979
1517.0265,0.040555
1517.9583,0.041192
1518.8902,0.042227
1519.8220,0.041360
1520.7538,0.039910
1521.6857,0.040696
1522.6175,0.043434
1523.5493,0.043704
1524.4812,0.042680
1525.4130,0.041667
1526.3448,0.041706
1527.2767,0.042662
1528.2085,0.042419
1529.1403,0.042620
1530.0722,0.042610
1531.0040,0.041633
1531.9359,0.040985
1532.8677,0.041298
1533.7995,0.042124
1534.7314,0.043370
1535.6632,0.043675
1536.5950,0.042062
1537.5269,0.040749
1538.4587,0.039945
1539.3905,0.039531
1540.3224,0.041557
1541.2542,0.044814
1542.1860,0.044927
1543.1179,0.045471
1544.0497,0.046320
1544.9815,0.045309
1545.9134,0.044670
1546.8452,0.045484
1547.7770,0.045253
1548.7089,0.044093
1549.6407,0.043401
1550.5725,0.044227
1551.5044,0.046096
1552.4362,0.046150
1553.3680,0.044927
1554.2999,0.043982
1555.2317,0.044823
1556.1635,0.046128
1557.0954,0.044620
1558.0272,0.042736
1558.9591,0.044971
1559.8909,0.053186
1560.8227,0.055203
1561.7546,0.052528
1562.6864,0.049744
1563.6182,0.048282
1564.5501,0.047670
1565.4819,0.048067
1566.4137,0.049188
1567.3456,0.049278
1568.2774,0.048940
1569.2092,0.049136
1570.1411,0.050797
1571.0729,0.053107
1572.0047,0.052382
1572.9366,0.051107
1573.8684,0.050992
1574.8002,0.051226
1575.7321,0.052122
1576.6639,0.053914
1577.5957,0.057238
1578.5276,0.057771
1579.4594,0.056319
1580.3912,0.056191
1581.3231,0.056676
1582.2549,0.057186
1583.1867,0.057506
1584.1186,0.058092
1585.0504,0.059041
1585.9822,0.059721
1586.9141,0.060509
1587.8459,0.061315
1588.7778,0.061916
1589.7096,0.063282
1590.6414,0.064400
1591.5733,0.064966
1592.5051,0.065468
1593.4369,0.066085
1594.3688,0.067319
1595.3006,0.069123
1596.2324,0.070350
1597.1643,0.071090
