Wavenumber,Intensity
650.4205,0.400852
651.3523,0.405042
652.2841,0.383721
653.2160,0.375260
654.1478,0.381462
655.0796,0.390024
656.0115,0.401775
656.9433,0.403220
657.8751,0.385168
658.8070,0.377406
659.7388,0.376065
660.6706,0.384992
661.6025,0.386218
662.5343,0.381105
663.4661,0.376430
664.3980,0.382964
665.3298,0.379887
666.2616,0.378761
667.1935,0.378995
668.1253,0.380186
669.0571,0.377672
669.9890,0.381301
670.9208,0.375239
671.8526,0.367874
672.7845,0.364917
673.7163,0.363489
674.6481,0.363721
675.5800,0.365400
676.5118,0.360543
677.4437,0.358479
678.3755,0.357575
679.3073,0.364915
680.2392,0.363505
681.1710,0.358870
682.1028,0.357664
683.0347,0.355334
683.9665,0.354865
684.8983,0.358060
685.8302,0.352641
686.7620,0.347131
687.6938,0.346548
688.6257,0.351770
689.5575,0.352862
690.4893,0.348823
691.4212,0.343626
692.3530,0.343324
693.2848,0.341554
694.2167,0.339728
695.1485,0.340043
696.0803,0.345116
697.0122,0.344237
697.9440,0.340055
698.8758,0.338247
699.8077,0.336043
700.7395,0.333287
701.6713,0.330825
702.6032,0.328202
703.5350,0.331496
704.4669,0.333736
705.3987,0.330226
706.3305,0.327452
707.2624,0.328286
708.1942,0.322269
709.1260,0.318452
710.0579,0.317695
710.9897,0.320248
711.9215,0.323325
712.8534,0.319299
713.7852,0.314543
714.7170,0.313185
715.6489,0.310329
716.5807,0.308650
717.5125,0.310716
718.4444,0.310303
719.3762,0.306065
720.3080,0.303953
721.2399,0.303728
722.1717,0.303834
723.1035,0.305079
724.0354,0.303910
724.9672,0.299062
725.8990,0.297581
726.8309,0.297808
727.7627,0.296509
728.6945,0.295903
729.6264,0.295480
730.5582,0.291926
731.4901,0.289441
732.4219,0.288506
733.3537,0.287018
734.2856,0.285889
735.2174,0.284113
736.1492,0.283528
737.0811,0.285215
738.0129,0.283537
738.9447,0.282487
739.8766,0.279016
740.8084,0.276746
741.7402,0.277682
742.6721,0.277329
743.6039,0.273552
744.5357,0.270614
745.4676,0.268982
746.3994,0.267792
747.3312,0.266229
748.2631,0.265284
749.1949,0.264723
750.1267,0.264290
751.0586,0.262424
751.9904,0.260345
752.9222,0.259348
753.8541,0.260119
754.7859,0.259453
755.7177,0.257936
756.6496,0.255862
757.5814,0.255114
758.5132,0.253791
759.4451,0.251282
760.3769,0.249567
761.3088,0.247983
762.2406,0.247551
763.1724,0.249354
764.1043,0.248189
765.0361,0.245363
765.9679,0.243034
766.8998,0.240600
767.8316,0.238773
768.7634,0.239108
769.6953,0.238550
770.6271,0.237745
771.5589,0.236350
772.4908,0.234986
773.4226,0.233244
774.3544,0.231592
775.2863,0.230501
776.2181,0.229184
777.1499,0.227261
778.0818,0.225943
779.0136,0.224747
779.9454,0.223103
780.8773,0.220300
781.8091,0.219071
782.7409,0.219108
783.6728,0.218322
784.6046,0.217151
785.5364,0.215466
786.4683,0.214032
787.4001,0.213832
788.3320,0.212533
789.2638,0.209359
790.1956,0.206890
791.1275,0.206782
792.0593,0.206548
792.9911,0.205712
793.9230,0.204376
794.8548,0.202206
795.7866,0.201223
796.7185,0.201945
797.6503,0.202055
798.5821,0.200611
799.5140,0.197451
800.4458,0.194891
801.3776,0.193964
802.3095,0.194043
803.2413,0.194049
804.1731,0.193105
805.1050,0.191918
806.0368,0.190536
806.9686,0.189185
807.9005,0.187933
808.8323,0.185516
809.7641,0.183431
810.6960,0.181693
811.6278,0.179927
812.5596,0.178310
813.4915,0.176801
814.4233,0.176454
815.3552,0.175518
816.2870,0.173475
817.2188,0.171381
818.1507,0.169626
819.0825,0.169220
820.0143,0.169475
820.9462,0.168832
821.8780,0.166750
822.8098,0.165213
823.7417,0.164158
824.6735,0.162685
825.6053,0.160568
826.5372,0.159193
827.4690,0.158437
828.4008,0.157581
829.3327,0.156940
830.2645,0.155922
831.1963,0.154581
832.1282,0.153824
833.0600,0.152912
833.9918,0.151359
834.9237,0.149813
835.8555,0.149024
836.7873,0.148657
837.7192,0.148208
838.6510,0.147063
839.5828,0.145751
840.5147,0.144757
841.4465,0.143624
842.3784,0.142367
843.3102,0.141362
844.2420,0.140450
845.1739,0.140144
846.1057,0.139241
847.0375,0.137164
847.9694,0.135936
848.9012,0.135927
849.8330,0.135590
850.7649,0.134714
851.6967,0.133216
852.6285,0.132167
853.5604,0.131699
854.4922,0.130891
855.4240,0.129966
856.3559,0.129553
857.2877,0.129315
858.2195,0.128961
859.1514,0.128734
860.0832,0.128192
861.0150,0.127299
861.9469,0.126810
862.8787,0.126651
863.8105,0.126760
864.7424,0.127334
865.6742,0.128578
866.6060,0.129587
867.5379,0.129824
868.4697,0.131136
869.4016,0.133774
870.3334,0.137067
871.2652,0.140662
872.1971,0.144571
873.1289,0.149371
874.0607,0.153908
874.9926,0.158315
875.9244,0.163063
876.8562,0.166458
877.7881,0.166982
878.7199,0.164945
879.6517,0.161185
880.5836,0.155857
881.5154,0.149383
882.4472,0.142322
883.3791,0.134893
884.3109,0.128077
885.2427,0.121837
886.1746,0.116468
887.1064,0.112430
888.0382,0.108575
888.9701,0.104995
889.9019,0.102456
890.8337,0.100084
891.7656,0.097440
892.6974,0.095280
893.6292,0.093482
894.5611,0.092122
895.4929,0.091101
896.4247,0.089490
897.3566,0.088048
898.2884,0.087364
899.2203,0.086772
900.1521,0.085969
901.0839,0.085107
902.0158,0.084014
902.9476,0.082895
903.8794,0.082272
904.8113,0.081730
905.7431,0.081054
906.6749,0.080061
907.6068,0.079101
908.5386,0.078633
909.4704,0.078214
910.4023,0.077664
911.3341,0.077377
912.2659,0.076991
913.1978,0.076092
914.1296,0.075209
915.0614,0.074812
915.9933,0.074396
916.9251,0.073763
917.8569,0.073376
918.7888,0.072932
919.7206,0.072242
920.6524,0.071665
921.5843,0.071301
922.5161,0.070837
923.4479,0.070238
924.3798,0.069714
925.3116,0.069409
926.2435,0.068765
927.1753,0.067935
928.1071,0.067578
929.0390,0.067420
929.9708,0.067028
930.9026,0.066629
931.8345,0.066133
932.7663,0.065566
933.6981,0.065552
934.6300,0.065342
935.5618,0.064919
936.4936,0.064607
937.4255,0.064012
938.3573,0.063401
939.2891,0.062988
940.2210,0.062788
941.1528,0.062561
942.0846,0.062336
943.0165,0.062021
943.9483,0.061708
944.8801,0.061373
945.8120,0.061144
946.7438,0.061216
947.6756,0.061234
948.6075,0.060872
949.5393,0.060355
950.4711,0.059977
951.4030,0.059674
952.3348,0.059433
953.2667,0.059180
954.1985,0.058921
955.1303,0.058478
956.0622,0.057950
956.9940,0.057870
957.9258,0.057783
958.8577,0.057634
959.7895,0.057555
960.7213,0.057540
961.6532,0.057677
962.5850,0.057554
963.5168,0.057113
964.4487,0.056608
965.3805,0.056305
966.3123,0.056442
967.2442,0.056572
968.1760,0.056372
969.1078,0.056189
970.0397,0.055946
970.9715,0.055610
971.9033,0.055579
972.8352,0.055587
973.7670,0.055450
974.6988,0.055167
975.6307,0.054993
976.5625,0.054842
977.4943,0.054649
978.4262,0.054577
979.3580,0.054504
980.2899,0.054269
981.2217,0.054236
982.1535,0.054273
983.0854,0.054402
984.0172,0.054669
984.9490,0.054580
985.8809,0.054334
986.8127,0.054128
987.7445,0.054079
988.6764,0.054320
989.6082,0.054419
990.5400,0.054135
991.4719,0.053970
992.4037,0.053962
993.3355,0.054308
994.2674,0.054585
995.1992,0.054560
996.1310,0.054849
997.0629,0.055227
997.9947,0.055351
998.9265,0.055354
999.8584,0.055490
1000.7902,0.055752
1001.7220,0.055914
1002.6539,0.056086
1003.5857,0.056146
1004.5175,0.056193
1005.4494,0.056293
1006.3812,0.056581
1007.3131,0.057167
1008.2449,0.057562
1009.1767,0.057811
1010.1086,0.058269
1011.0404,0.058927
1011.9722,0.059598
1012.9041,0.060304
1013.8359,0.060841
1014.7677,0.061208
1015.6996,0.061817
1016.6314,0.063031
1017.5632,0.064339
1018.4951,0.065281
1019.4269,0.066171
1020.3587,0.067548
1021.2906,0.069215
1022.2224,0.070836
1023.1542,0.072498
1024.0861,0.074652
1025.0179,0.077099
1025.9497,0.079605
1026.8816,0.082713
1027.8134,0.086231
1028.7452,0.089728
1029.6771,0.093677
1030.6089,0.098650
1031.5407,0.104206
1032.4726,0.110585
1033.4044,0.118449
1034.3362,0.127475
1035.2681,0.137492
1036.1999,0.148752
1037.1318,0.161834
1038.0636,0.176222
1038.9954,0.191170
1039.9273,0.206309
1040.8591,0.220508
1041.7909,0.232419
1042.7228,0.241266
1043.6546,0.246330
1044.5864,0.247063
1045.5183,0.243231
1046.4501,0.234650
1047.3819,0.222379
1048.3138,0.208418
1049.2456,0.193306
1050.1774,0.177414
1051.1093,0.162074
1052.0411,0.147109
1052.9729,0.133519
1053.9048,0.121601
1054.8366,0.110721
1055.7684,0.101042
1056.7003,0.092924
1057.6321,0.086366
1058.5639,0.080986
1059.4958,0.076829
1060.4276,0.073544
1061.3594,0.070670
1062.2913,0.068745
1063.2231,0.067617
1064.1550,0.066645
1065.0868,0.065948
1066.0186,0.065901
1066.9505,0.066103
1067.8823,0.066425
1068.8141,0.067157
1069.7460,0.068071
1070.6778,0.069300
1071.6096,0.070935
1072.5415,0.072730
1073.4733,0.074665
1074.4051,0.076792
1075.3370,0.079136
1076.2688,0.082027
1077.2006,0.084980
1078.1325,0.087941
1079.0643,0.090846
1079.9961,0.093760
1080.9280,0.096666
1081.8598,0.099268
1082.7916,0.101727
1083.7235,0.103653
1084.6553,0.104976
1085.5871,0.105584
1086.5190,0.105145
1087.4508,0.103804
1088.3826,0.101676
1089.3145,0.098733
1090.2463,0.095181
1091.1782,0.091337
1092.1100,0.087127
1093.0418,0.082637
1093.9737,0.078418
1094.9055,0.074446
1095.8373,0.070727
1096.7692,0.067425
1097.7010,0.064279
1098.6328,0.061115
1099.5647,0.058408
1100.4965,0.056447
1101.4283,0.054705
1102.3602,0.052945
1103.2920,0.051533
1104.2238,0.050501
1105.1557,0.049359
1106.0875,0.048436
1107.0193,0.047818
1107.9512,0.047119
1108.8830,0.046609
1109.8148,0.046110
1110.7467,0.045457
1111.6785,0.045063
1112.6103,0.044832
1113.5422,0.044799
1114.4740,0.044717
1115.4058,0.044452
1116.3377,0.044369
1117.2695,0.044455
1118.2014,0.044366
1119.1332,0.044225
1120.0650,0.044109
1120.9969,0.044018
1121.9287,0.044143
1122.8605,0.044294
1123.7924,0.044390
1124.7242,0.044505
1125.6560,0.044204
1126.5879,0.043889
1127.5197,0.043982
1128.4515,0.044201
1129.3834,0.044035
1130.3152,0.043642
1131.2470,0.043542
1132.1789,0.043660
1133.1107,0.043731
1134.0425,0.043690
1134.9744,0.043490
1135.9062,0.043360
1136.8380,0.043275
1137.7699,0.042983
1138.7017,0.042740
1139.6335,0.042740
1140.5654,0.042808
1141.4972,0.042783
1142.4290,0.042749
1143.3609,0.042829
1144.2927,0.042841
1145.2246,0.042721
1146.1564,0.042684
1147.0882,0.042679
1148.0201,0.042653
1148.9519,0.042507
1149.8837,0.042704
1150.8156,0.042969
1151.7474,0.042887
1152.6792,0.042679
1153.6111,0.042736
1154.5429,0.042845
1155.4747,0.042745
1156.4066,0.042790
1157.3384,0.042781
1158.2702,0.042526
1159.2021,0.042291
1160.1339,0.042346
1161.0657,0.042159
1161.9976,0.041871
1162.9294,0.041825
1163.8612,0.041430
1164.7931,0.041234
1165.7249,0.041148
1166.6567,0.041083
1167.5886,0.040869
1168.5204,0.040735
1169.4522,0.040824
1170.3841,0.040858
1171.3159,0.040655
1172.2477,0.040499
1173.1796,0.040365
1174.1114,0.040289
1175.0433,0.040260
1175.9751,0.040294
1176.9069,0.040359
1177.8388,0.040283
1178.7706,0.040167
1179.7024,0.040256
1180.6343,0.040246
1181.5661,0.040272
1182.4979,0.040355
1183.4298,0.040320
1184.3616,0.040312
1185.2934,0.040467
1186.2253,0.040396
1187.1571,0.040242
1188.0889,0.040149
1189.0208,0.040152
1189.9526,0.040469
1190.8844,0.040513
1191.8163,0.040554
1192.7481,0.040516
1193.6799,0.040467
1194.6118,0.040602
1195.5436,0.040524
1196.4754,0.040542
1197.4073,0.040771
1198.3391,0.040686
1199.2709,0.040786
1200.2028,0.040749
1201.1346,0.040575
1202.0665,0.040426
1202.9983,0.040467
1203.9301,0.040808
1204.8620,0.040941
1205.7938,0.040940
1206.7256,0.040823
1207.6575,0.040719
1208.5893,0.040741
1209.5211,0.040732
1210.4530,0.040781
1211.3848,0.040876
1212.3166,0.041041
1213.2485,0.040837
1214.1803,0.040762
1215.1121,0.040982
1216.0440,0.041175
1216.9758,0.041068
1217.9076,0.041022
1218.8395,0.041039
1219.7713,0.041062
1220.7031,0.041020
1221.6350,0.040948
1222.5668,0.041080
1223.4986,0.041182
1224.4305,0.041187
1225.3623,0.041348
1226.2941,0.041319
1227.2260,0.041416
1228.1578,0.041552
1229.0897,0.041649
1230.0215,0.041490
1230.9533,0.041421
1231.8852,0.041662
1232.8170,0.041713
1233.7488,0.041625
1234.6807,0.041325
1235.6125,0.041346
1236.5443,0.041665
1237.4762,0.041732
1238.4080,0.041693
1239.3398,0.041615
1240.2717,0.041686
1241.2035,0.042112
1242.1353,0.042441
1243.0672,0.042365
1243.9990,0.042520
1244.9308,0.042936
1245.8627,0.042979
1246.7945,0.042748
1247.7263,0.042800
1248.6582,0.043100
1249.5900,0.043342
1250.5218,0.043528
1251.4537,0.043729
1252.3855,0.043798
1253.3173,0.043948
1254.2492,0.044459
1255.1810,0.044914
1256.1129,0.044916
1257.0447,0.045132
1257.9765,0.045735
1258.9084,0.046089
1259.8402,0.046295
1260.7720,0.046711
1261.7039,0.047159
1262.6357,0.047608
1263.5675,0.048052
1264.4994,0.048792
1265.4312,0.049461
1266.3630,0.050089
1267.2949,0.050586
1268.2267,0.051042
1269.1585,0.051557
1270.0904,0.052248
1271.0222,0.052836
1271.9540,0.053131
1272.8859,0.053626
1273.8177,0.053815
1274.7495,0.053647
1275.6814,0.053631
1276.6132,0.053685
1277.5450,0.053485
1278.4769,0.052972
1279.4087,0.052560
1280.3405,0.052163
1281.2724,0.051665
1282.2042,0.051175
1283.1361,0.050759
1284.0679,0.050588
1284.9997,0.050304
1285.9316,0.050094
1286.8634,0.050113
1287.7952,0.050065
1288.7271,0.049841
1289.6589,0.049666
1290.5907,0.049625
1291.5226,0.049737
1292.4544,0.049953
1293.3862,0.049917
1294.3181,0.049881
1295.2499,0.050159
1296.1817,0.050695
1297.1136,0.050982
1298.0454,0.050892
1298.9772,0.050839
1299.9091,0.051132
1300.8409,0.051554
1301.7727,0.051671
1302.7046,0.051712
1303.6364,0.051966
1304.5682,0.052149
1305.5001,0.052554
1306.4319,0.053006
1307.3637,0.053245
1308.2956,0.053574
1309.2274,0.054149
1310.1592,0.054290
1311.0911,0.054291
1312.0229,0.054511
1312.9548,0.054926
1313.8866,0.055327
1314.8184,0.055406
1315.7503,0.055509
1316.6821,0.055535
1317.6139,0.055647
1318.5458,0.055989
1319.4776,0.056437
1320.4094,0.056763
1321.3413,0.056715
1322.2731,0.056893
1323.2049,0.057004
1324.1368,0.056893
1325.0686,0.056871
1326.0004,0.056808
1326.9323,0.056700
1327.8641,0.056885
1328.7959,0.056883
1329.7278,0.056801
1330.6596,0.056765
1331.5914,0.056582
1332.5233,0.056287
1333.4551,0.056159
1334.3869,0.055797
1335.3188,0.055186
1336.2506,0.054778
1337.1824,0.054819
1338.1143,0.054664
1339.0461,0.054704
1339.9780,0.054953
1340.9098,0.054898
1341.8416,0.054266
1342.7735,0.053278
1343.7053,0.052763
1344.6371,0.052470
1345.5690,0.052237
1346.5008,0.051714
1347.4326,0.051380
1348.3645,0.051137
1349.2963,0.050493
1350.2281,0.050300
1351.1600,0.050361
1352.0918,0.049982
1353.0236,0.049774
1353.9555,0.049844
1354.8873,0.049848
1355.8191,0.049886
1356.7510,0.049703
1357.6828,0.049557
1358.6146,0.049849
1359.5465,0.049939
1360.4783,0.049704
1361.4101,0.049895
1362.3420,0.050358
1363.2738,0.050554
1364.2056,0.051206
1365.1375,0.050929
1366.0693,0.050564
1367.0012,0.051049
1367.9330,0.051763
1368.8648,0.052402
1369.7967,0.053095
1370.7285,0.053574
1371.6603,0.054438
1372.5922,0.055608
1373.5240,0.056933
1374.4558,0.059006
1375.3877,0.061027
1376.3195,0.062035
1377.2513,0.062342
1378.1832,0.062915
1379.1150,0.063843
1380.0468,0.064298
1380.9787,0.064864
1381.9105,0.065307
1382.8423,0.065507
1383.7742,0.065726
1384.7060,0.065917
1385.6378,0.066037
1386.5697,0.065947
1387.5015,0.066032
1388.4333,0.066419
1389.3652,0.065425
1390.2970,0.063927
1391.2288,0.063061
1392.1607,0.062445
1393.0925,0.061827
1394.0244,0.061317
1394.9562,0.061950
1395.8880,0.063089
1396.8199,0.062644
1397.7517,0.061993
1398.6835,0.062203
1399.6154,0.063110
1400.5472,0.063493
1401.4790,0.062633
1402.4109,0.062209
1403.3427,0.062331
1404.2745,0.062643
1405.2064,0.063392
1406.1382,0.064136
1407.0700,0.063585
1408.0019,0.063099
1408.9337,0.063187
1409.8655,0.063708
1410.7974,0.064347
1411.7292,0.064534
1412.6610,0.064558
1413.5929,0.064434
1414.5247,0.064294
1415.4565,0.063953
1416.3884,0.063819
1417.3202,0.064073
1418.2520,0.064288
1419.1839,0.064506
1420.1157,0.066379
1421.0476,0.066457
1421.9794,0.064759
1422.9112,0.064009
1423.8431,0.063861
1424.7749,0.064419
1425.7067,0.063723
1426.6386,0.062478
1427.5704,0.061762
1428.5022,0.061434
1429.4341,0.061324
1430.3659,0.061379
1431.2977,0.061062
1432.2296,0.059974
1433.1614,0.058910
1434.0932,0.058195
1435.0251,0.057808
1435.9569,0.057493
1436.8887,0.058197
1437.8206,0.059862
1438.7524,0.058805
1439.6842,0.057378
1440.6161,0.056851
1441.5479,0.056899
1442.4797,0.057083
1443.4116,0.056967
1444.3434,0.056935
1445.2752,0.057511
1446.2071,0.058478
1447.1389,0.059418
1448.0707,0.060603
1449.0026,0.062168
1449.9344,0.062567
1450.8663,0.062335
1451.7981,0.062373
1452.7299,0.062990
1453.6618,0.063115
1454.5936,0.062296
1455.5254,0.062206
1456.4573,0.062569
1457.3891,0.063212
1458.3209,0.063037
1459.2528,0.061512
1460.1846,0.058790
1461.1164,0.055823
1462.0483,0.054133
1462.9801,0.053054
1463.9119,0.051962
1464.8438,0.051095
1465.7756,0.051199
1466.7074,0.050161
1467.6393,0.048789
1468.5711,0.047950
1469.5029,0.047159
1470.4348,0.046401
1471.3666,0.046066
1472.2984,0.046871
1473.2303,0.047853
1474.1621,0.048285
1475.0939,0.048007
1476.0258,0.047334
1476.9576,0.047742
1477.8895,0.047446
1478.8213,0.046934
1479.7531,0.047083
1480.6850,0.047327
1481.6168,0.047400
1482.5486,0.047712
1483.4805,0.047747
1484.4123,0.047448
1485.3441,0.046860
1486.2760,0.046368
1487.2078,0.046565
1488.1396,0.047398
1489.0715,0.047078
1490.0033,0.046883
1490.9351,0.047276
1491.8670,0.046513
1492.7988,0.044921
1493.7306,0.043994
1494.6625,0.043515
1495.5943,0.043228
1496.5261,0.043855
1497.4580,0.044697
1498.3898,0.043683
1499.3216,0.043405
1500.2535,0.043199
1501.1853,0.042509
1502.1171,0.041930
1503.0490,0.041421
1503.9808,0.041114
1504.9127,0.040882
1505.8445,0.041498
1506.7763,0.043580
1507.7082,0.045956
1508.6400,0.045918
1509.5718,0.044658
1510.5037,0.043687
1511.4355,0.042840
1512.3673,0.042507
1513.2992,0.042491
1514.2310,0.042433
1515.1628,0.042394
1516.0947,0.042467
1517.0265,0.042947
1517.9583,0.043832
1518.8902,0.043217
1519.8220,0.042045
1520.7538,0.042185
1521.6857,0.043923
1522.6175,0.045453
1523.5493,0.045078
1524.4812,0.043760
1525.4130,0.043400
1526.3448,0.043758
1527.2767,0.043718
1528.2085,0.043892
1529.1403,0.043476
1530.0722,0.042680
1531.0040,0.042229
1531.9359,0.043072
1532.8677,0.043841
1533.7995,0.044204
1534.7314,0.044621
1535.6632,0.043676
1536.5950,0.042861
1537.5269,0.042427
1538.4587,0.042723
1539.3905,0.043984
1540.3224,0.045608
1541.2542,0.045749
1542.1860,0.045799
1543.1179,0.046344
1544.0497,0.045969
1544.9815,0.045672
1545.9134,0.045750
1546.8452,0.045492
1547.7770,0.044775
1548.7089,0.044403
1549.6407,0.044851
1550.5725,0.046070
1551.5044,0.046420
1552.4362,0.045822
1553.3680,0.045300
1554.2999,0.045558
1555.2317,0.046359
1556.1635,0.045713
1557.0954,0.045115
1558.0272,0.045904
1558.9591,0.048633
1559.8909,0.051945
1560.8227,0.052397
1561.7546,0.050363
1562.6864,0.048802
1563.6182,0.048306
1564.5501,0.048148
1565.4819,0.048634
1566.4137,0.049145
1567.3456,0.048962
1568.2774,0.048973
1569.2092,0.049728
1570.1411,0.051871
1571.0729,0.053218
1572.0047,0.052200
1572.9366,0.051158
1573.8684,0.051113
1574.8002,0.051991
1575.7321,0.053179
1576.6639,0.055305
1577.5957,0.057114
1578.5276,0.056540
1579.4594,0.055563
1580.3912,0.055408
1581.3231,0.055908
1582.2549,0.056637
1583.1867,0.057102
1584.1186,0.057627
1585.0504,0.058386
1585.9822,0.059091
1586.9141,0.060011
1587.8459,0.060884
1588.7778,0.061651
1589.7096,0.062238
1590.6414,0.062771
1591.5733,0.063681
1592.5051,0.064902
1593.4369,0.065731
1594.3688,0.066240
1595.3006,0.067423
1596.2324,0.068997
1597.1643,0.070190
