Wavenumber,Intensity
650.4205,0.336751
651.3523,0.345324
652.2841,0.365748
653.2160,0.368029
654.1478,0.366837
655.0796,0.367070
656.0115,0.359606
656.9433,0.356338
657.8751,0.360066
658.8070,0.368195
659.7388,0.371309
660.6706,0.367463
661.6025,0.355883
662.5343,0.342990
663.4661,0.342124
664.3980,0.350334
665.3298,0.340260
666.2616,0.339759
667.1935,0.344051
668.1253,0.333948
669.0571,0.341487
669.9890,0.349764
670.9208,0.345771
671.8526,0.342133
672.7845,0.339144
673.7163,0.340960
674.6481,0.341522
675.5800,0.334288
676.5118,0.327508
677.4437,0.330677
678.3755,0.331539
679.3073,0.330196
680.2392,0.329891
681.1710,0.329961
682.1028,0.328845
683.0347,0.331241
683.9665,0.329037
684.8983,0.323619
685.8302,0.318870
686.7620,0.316497
687.6938,0.311599
688.6257,0.309787
689.5575,0.312365
690.4893,0.313139
691.4212,0.313049
692.3530,0.316309
693.2848,0.317144
694.2167,0.315016
695.1485,0.313688
696.0803,0.311507
697.0122,0.311217
697.9440,0.315287
698.8758,0.311738
699.8077,0.306762
700.7395,0.306612
701.6713,0.304763
702.6032,0.302100
703.5350,0.302753
704.4669,0.302022
705.3987,0.298479
706.3305,0.295388
707.2624,0.296673
708.1942,0.294806
709.1260,0.291791
710.0579,0.288294
710.9897,0.287850
711.9215,0.289148
712.8534,0.290035
713.7852,0.290037
714.7170,0.286197
715.6489,0.282830
716.5807,0.282843
717.5125,0.282791
718.4444,0.283862
719.3762,0.281478
720.3080,0.277747
721.2399,0.276014
722.1717,0.277588
723.1035,0.278758
724.0354,0.276887
724.9672,0.273377
725.8990,0.273296
726.8309,0.274515
727.7627,0.272377
728.6945,0.267064
729.6264,0.264851
730.5582,0.265608
731.4901,0.263555
732.4219,0.261119
733.3537,0.262415
734.2856,0.261616
735.2174,0.259320
736.1492,0.257155
737.0811,0.256698
738.0129,0.256945
738.9447,0.257311
739.8766,0.255388
740.8084,0.252021
741.7402,0.249530
742.6721,0.248434
743.6039,0.247560
744.5357,0.246572
745.4676,0.244706
746.3994,0.243916
747.3312,0.241922
748.2631,0.239679
749.1949,0.239687
750.1267,0.240640
751.0586,0.238096
751.9904,0.235571
752.9222,0.235197
753.8541,0.233620
754.7859,0.232618
755.7177,0.231480
756.6496,0.231793
757.5814,0.233206
758.5132,0.231514
759.4451,0.227359
760.3769,0.224694
761.3088,0.224966
762.2406,0.224476
763.1724,0.221271
764.1043,0.217970
765.0361,0.216369
765.9679,0.217185
766.8998,0.217390
767.8316,0.216723
768.7634,0.216530
769.6953,0.214441
770.6271,0.211266
771.5589,0.210655
772.4908,0.211102
773.4226,0.208758
774.3544,0.207488
775.2863,0.207269
776.2181,0.205208
777.1499,0.203672
778.0818,0.204351
779.0136,0.203139
779.9454,0.200852
780.8773,0.200409
781.8091,0.199325
782.7409,0.197121
783.6728,0.196354
784.6046,0.195017
785.5364,0.194100
786.4683,0.193367
787.4001,0.191873
788.3320,0.191487
789.2638,0.191660
790.1956,0.190073
791.1275,0.188884
792.0593,0.187943
792.9911,0.186454
793.9230,0.185569
794.8548,0.184333
795.7866,0.181459
796.7185,0.179202
797.6503,0.178123
798.5821,0.178078
799.5140,0.177848
800.4458,0.176784
801.3776,0.174756
802.3095,0.174144
803.2413,0.174961
804.1731,0.174528
805.1050,0.173062
806.0368,0.171935
806.9686,0.170125
807.9005,0.167586
808.8323,0.166916
809.7641,0.166660
810.6960,0.164737
811.6278,0.162525
812.5596,0.160567
813.4915,0.159925
814.4233,0.159133
815.3552,0.157611
816.2870,0.156011
817.2188,0.155068
818.1507,0.153941
819.0825,0.153417
820.0143,0.152575
820.9462,0.151309
821.8780,0.150432
822.8098,0.148633
823.7417,0.145695
824.6735,0.145066
825.6053,0.145673
826.5372,0.144677
827.4690,0.142240
828.4008,0.140759
829.3327,0.139519
830.2645,0.138926
831.1963,0.138735
832.1282,0.138487
833.0600,0.137966
833.9918,0.136939
834.9237,0.135348
835.8555,0.134412
836.7873,0.133515
837.7192,0.132573
838.6510,0.131594
839.5828,0.130267
840.5147,0.129040
841.4465,0.128351
842.3784,0.127720
843.3102,0.127795
844.2420,0.127588
845.1739,0.126582
846.1057,0.125293
847.0375,0.124543
847.9694,0.123627
848.9012,0.122129
849.8330,0.121386
850.7649,0.120924
851.6967,0.119596
852.6285,0.118760
853.5604,0.119006
854.4922,0.119184
855.4240,0.118326
856.3559,0.117924
857.2877,0.117675
858.2195,0.117208
859.1514,0.116682
860.0832,0.116110
861.0150,0.116024
861.9469,0.116567
862.8787,0.116907
863.8105,0.117119
864.7424,0.117408
865.6742,0.118284
866.6060,0.119873
867.5379,0.121509
868.4697,0.123061
869.4016,0.125866
870.3334,0.130274
871.2652,0.135139
872.1971,0.139546
873.1289,0.145061
874.0607,0.151572
874.9926,0.158172
875.9244,0.163819
876.8562,0.167878
877.7881,0.169695
878.7199,0.169040
879.6517,0.166237
880.5836,0.161021
881.5154,0.153555
882.4472,0.145102
883.3791,0.136799
884.3109,0.128935
885.2427,0.121599
886.1746,0.115231
887.1064,0.109493
888.0382,0.104444
888.9701,0.100326
889.9019,0.096851
890.8337,0.093607
891.7656,0.090592
892.6974,0.088414
893.6292,0.086656
894.5611,0.085389
895.4929,0.084318
896.4247,0.082379
897.3566,0.081099
898.2884,0.080515
899.2203,0.079579
900.1521,0.078641
901.0839,0.077759
902.0158,0.076550
902.9476,0.075624
903.8794,0.075118
904.8113,0.074697
905.7431,0.074315
906.6749,0.073912
907.6068,0.073122
908.5386,0.072056
909.4704,0.071083
910.4023,0.070749
911.3341,0.069936
912.2659,0.069514
913.1978,0.069470
914.1296,0.069209
915.0614,0.068510
915.9933,0.067531
916.9251,0.066881
917.8569,0.066413
918.7888,0.065995
919.7206,0.065821
920.6524,0.065717
921.5843,0.065439
922.5161,0.065118
923.4479,0.064191
924.3798,0.063293
925.3116,0.063148
926.2435,0.063304
927.1753,0.063126
928.1071,0.062529
929.0390,0.061861
929.9708,0.061419
930.9026,0.061299
931.8345,0.061043
932.7663,0.060871
933.6981,0.060734
934.6300,0.060179
935.5618,0.059544
936.4936,0.059442
937.4255,0.059558
938.3573,0.059378
939.2891,0.058643
940.2210,0.058350
941.1528,0.058606
942.0846,0.058204
943.0165,0.057581
943.9483,0.057486
944.8801,0.057510
945.8120,0.057393
946.7438,0.057385
947.6756,0.057327
948.6075,0.057068
949.5393,0.056390
950.4711,0.056016
951.4030,0.056063
952.3348,0.055535
953.2667,0.055157
954.1985,0.054948
955.1303,0.054904
956.0622,0.054687
956.9940,0.054207
957.9258,0.054625
958.8577,0.054780
959.7895,0.054527
960.7213,0.054362
961.6532,0.054065
962.5850,0.053810
963.5168,0.053641
964.4487,0.053516
965.3805,0.053398
966.3123,0.053396
967.2442,0.053216
968.1760,0.053404
969.1078,0.053636
970.0397,0.053374
970.9715,0.053120
971.9033,0.052919
972.8352,0.052679
973.7670,0.052766
974.6988,0.052703
975.6307,0.052334
976.5625,0.052140
977.4943,0.052209
978.4262,0.052075
979.3580,0.052286
980.2899,0.052670
981.2217,0.052632
982.1535,0.052633
983.0854,0.052591
984.0172,0.052458
984.9490,0.052442
985.8809,0.052284
986.8127,0.052176
987.7445,0.052543
988.6764,0.052997
989.6082,0.052912
990.5400,0.052914
991.4719,0.053006
992.4037,0.053067
993.3355,0.053405
994.2674,0.053256
995.1992,0.053263
996.1310,0.053689
997.0629,0.054078
997.9947,0.054395
998.9265,0.054464
999.8584,0.054405
1000.7902,0.054847
1001.7220,0.055163
1002.6539,0.055377
1003.5857,0.055709
1004.5175,0.055905
1005.4494,0.056344
1006.3812,0.057142
1007.3131,0.057621
1008.2449,0.058083
1009.1767,0.058897
1010.1086,0.059400
1011.0404,0.059901
1011.9722,0.060401
1012.9041,0.061206
1013.8359,0.062214
1014.7677,0.063298
1015.6996,0.064446
1016.6314,0.065368
1017.5632,0.066624
1018.4951,0.068192
1019.4269,0.069909
1020.3587,0.071626
1021.2906,0.073307
1022.2224,0.075610
1023.1542,0.078316
1024.0861,0.080992
1025.0179,0.083713
1025.9497,0.086749
1026.8816,0.090451
1027.8134,0.094620
1028.7452,0.099514
1029.6771,0.105063
1030.6089,0.111109
1031.5407,0.118112
1032.4726,0.126128
1033.4044,0.135099
1034.3362,0.145526
1035.2681,0.157835
1036.1999,0.171528
1037.1318,0.186302
1038.0636,0.202350
1038.9954,0.219221
1039.9273,0.236186
1040.8591,0.251855
1041.7909,0.265318
1042.7228,0.275653
1043.6546,0.281219
1044.5864,0.281688
1045.5183,0.277402
1046.4501,0.268591
1047.3819,0.256155
1048.3138,0.241000
1049.2456,0.224021
1050.1774,0.206428
1051.1093,0.188805
1052.0411,0.171633
1052.9729,0.155621
1053.9048,0.141143
1054.8366,0.128243
1055.7684,0.116865
1056.7003,0.106885
1057.6321,0.098936
1058.5639,0.092381
1059.4958,0.086916
1060.4276,0.082571
1061.3594,0.079331
1062.2913,0.077140
1063.2231,0.075631
1064.1550,0.074267
1065.0868,0.073411
1066.0186,0.073061
1066.9505,0.073346
1067.8823,0.073825
1068.8141,0.074441
1069.7460,0.075839
1070.6778,0.077536
1071.6096,0.079455
1072.5415,0.081689
1073.4733,0.083871
1074.4051,0.086269
1075.3370,0.089084
1076.2688,0.092524
1077.2006,0.095962
1078.1325,0.099482
1079.0643,0.103008
1079.9961,0.106255
1080.9280,0.109347
1081.8598,0.112481
1082.7916,0.115129
1083.7235,0.116931
1084.6553,0.118179
1085.5871,0.118799
1086.5190,0.118479
1087.4508,0.117126
1088.3826,0.114821
1089.3145,0.111782
1090.2463,0.107764
1091.1782,0.103277
1092.1100,0.098400
1093.0418,0.093018
1093.9737,0.087605
1094.9055,0.082656
1095.8373,0.078097
1096.7692,0.073995
1097.7010,0.070249
1098.6328,0.066518
1099.5647,0.063240
1100.4965,0.060564
1101.4283,0.058196
1102.3602,0.056085
1103.2920,0.054208
1104.2238,0.052564
1105.1557,0.051140
1106.0875,0.050089
1107.0193,0.049012
1107.9512,0.048083
1108.8830,0.047447
1109.8148,0.046958
1110.7467,0.046537
1111.6785,0.045968
1112.6103,0.045332
1113.5422,0.045043
1114.4740,0.044981
1115.4058,0.044612
1116.3377,0.044228
1117.2695,0.044125
1118.2014,0.044076
1119.1332,0.043934
1120.0650,0.043816
1120.9969,0.043853
1121.9287,0.044040
1122.8605,0.044113
1123.7924,0.043991
1124.7242,0.043638
1125.6560,0.043444
1126.5879,0.043506
1127.5197,0.043697
1128.4515,0.043471
1129.3834,0.043197
1130.3152,0.043218
1131.2470,0.042976
1132.1789,0.042710
1133.1107,0.042461
1134.0425,0.042293
1134.9744,0.042351
1135.9062,0.042500
1136.8380,0.042292
1137.7699,0.042059
1138.7017,0.041995
1139.6335,0.041761
1140.5654,0.041500
1141.4972,0.041349
1142.4290,0.041333
1143.3609,0.041123
1144.2927,0.041068
1145.2246,0.041163
1146.1564,0.040926
1147.0882,0.040735
1148.0201,0.040795
1148.9519,0.040817
1149.8837,0.040687
1150.8156,0.040726
1151.7474,0.040884
1152.6792,0.040821
1153.6111,0.040759
1154.5429,0.040704
1155.4747,0.040841
1156.4066,0.040912
1157.3384,0.040739
1158.2702,0.040554
1159.2021,0.040354
1160.1339,0.040090
1161.0657,0.039846
1161.9976,0.039480
1162.9294,0.039225
1163.8612,0.039260
1164.7931,0.039236
1165.7249,0.038836
1166.6567,0.038668
1167.5886,0.038641
1168.5204,0.038432
1169.4522,0.038088
1170.3841,0.038006
1171.3159,0.038045
1172.2477,0.038075
1173.1796,0.038081
1174.1114,0.037858
1175.0433,0.037790
1175.9751,0.037843
1176.9069,0.037695
1177.8388,0.037653
1178.7706,0.037796
1179.7024,0.037788
1180.6343,0.037743
1181.5661,0.037904
1182.4979,0.037887
1183.4298,0.037624
1184.3616,0.037526
1185.2934,0.037584
1186.2253,0.037696
1187.1571,0.037769
1188.0889,0.037663
1189.0208,0.037587
1189.9526,0.037483
1190.8844,0.037581
1191.8163,0.037548
1192.7481,0.037468
1193.6799,0.037723
1194.6118,0.037785
1195.5436,0.037648
1196.4754,0.037734
1197.4073,0.037892
1198.3391,0.037914
1199.2709,0.037756
1200.2028,0.037749
1201.1346,0.037822
1202.0665,0.037870
1202.9983,0.037991
1203.9301,0.038167
1204.8620,0.038156
1205.7938,0.038045
1206.7256,0.038114
1207.6575,0.038066
1208.5893,0.037982
1209.5211,0.038120
1210.4530,0.038238
1211.3848,0.038112
1212.3166,0.038232
1213.2485,0.038376
1214.1803,0.038363
1215.1121,0.038526
1216.0440,0.038817
1216.9758,0.038708
1217.9076,0.038445
1218.8395,0.038497
1219.7713,0.038648
1220.7031,0.038802
1221.6350,0.038899
1222.5668,0.038827
1223.4986,0.038718
1224.4305,0.038729
1225.3623,0.038951
1226.2941,0.039244
1227.2260,0.039148
1228.1578,0.038975
1229.0897,0.039087
1230.0215,0.039286
1230.9533,0.039355
1231.8852,0.039409
1232.8170,0.039505
1233.7488,0.039552
1234.6807,0.039586
1235.6125,0.039638
1236.5443,0.039908
1237.4762,0.040249
1238.4080,0.040461
1239.3398,0.040415
1240.2717,0.040427
1241.2035,0.040552
1242.1353,0.040579
1243.0672,0.040609
1243.9990,0.040839
1244.9308,0.041135
1245.8627,0.041334
1246.7945,0.041602
1247.7263,0.041702
1248.6582,0.041820
1249.5900,0.042104
1250.5218,0.042280
1251.4537,0.042452
1252.3855,0.042670
1253.3173,0.043064
1254.2492,0.043474
1255.1810,0.043874
1256.1129,0.044400
1257.0447,0.044512
1257.9765,0.044579
1258.9084,0.045133
1259.8402,0.045716
1260.7720,0.046054
1261.7039,0.046599
1262.6357,0.047184
1263.5675,0.047555
1264.4994,0.048204
1265.4312,0.049157
1266.3630,0.049887
1267.2949,0.050383
1268.2267,0.050960
1269.1585,0.051642
1270.0904,0.052193
1271.0222,0.052777
1271.9540,0.053399
1272.8859,0.053872
1273.8177,0.053969
1274.7495,0.053932
1275.6814,0.053919
1276.6132,0.053653
1277.5450,0.053310
1278.4769,0.052867
1279.4087,0.052112
1280.3405,0.051764
1281.2724,0.051733
1282.2042,0.051207
1283.1361,0.050314
1284.0679,0.049752
1284.9997,0.049516
1285.9316,0.049377
1286.8634,0.049227
1287.7952,0.049104
1288.7271,0.049156
1289.6589,0.049127
1290.5907,0.049013
1291.5226,0.049086
1292.4544,0.049065
1293.3862,0.049142
1294.3181,0.049442
1295.2499,0.049683
1296.1817,0.050099
1297.1136,0.050412
1298.0454,0.050505
1298.9772,0.050721
1299.9091,0.050986
1300.8409,0.051224
1301.7727,0.051486
1302.7046,0.051632
1303.6364,0.051621
1304.5682,0.051819
1305.5001,0.052551
1306.4319,0.053274
1307.3637,0.053633
1308.2956,0.053826
1309.2274,0.053978
1310.1592,0.054115
1311.0911,0.054131
1312.0229,0.054096
1312.9548,0.054535
1313.8866,0.055270
1314.8184,0.055685
1315.7503,0.055945
1316.6821,0.055868
1317.6139,0.055753
1318.5458,0.055972
1319.4776,0.056536
1320.4094,0.057015
1321.3413,0.056909
1322.2731,0.056717
1323.2049,0.056715
1324.1368,0.057012
1325.0686,0.057133
1326.0004,0.056915
1326.9323,0.056794
1327.8641,0.056787
1328.7959,0.056793
1329.7278,0.056600
1330.6596,0.056449
1331.5914,0.056244
1332.5233,0.056142
1333.4551,0.055935
1334.3869,0.055484
1335.3188,0.054926
1336.2506,0.054612
1337.1824,0.054486
1338.1143,0.054267
1339.0461,0.053956
1339.9780,0.053824
1340.9098,0.053880
1341.8416,0.053433
1342.7735,0.052649
1343.7053,0.052056
1344.6371,0.051815
1345.5690,0.051530
1346.5008,0.051048
1347.4326,0.050707
1348.3645,0.050455
1349.2963,0.050158
1350.2281,0.049863
1351.1600,0.049757
1352.0918,0.049764
1353.0236,0.049564
1353.9555,0.049186
1354.8873,0.049179
1355.8191,0.049220
1356.7510,0.049029
1357.6828,0.048786
1358.6146,0.048706
1359.5465,0.048622
1360.4783,0.048497
1361.4101,0.048799
1362.3420,0.049090
1363.2738,0.049705
1364.2056,0.050874
1365.1375,0.050907
1366.0693,0.050491
1367.0012,0.051033
1367.9330,0.051857
1368.8648,0.052503
1369.7967,0.053653
1370.7285,0.054584
1371.6603,0.055139
1372.5922,0.056333
1373.5240,0.057999
1374.4558,0.060462
1375.3877,0.062985
1376.3195,0.063830
1377.2513,0.064039
1378.1832,0.064665
1379.1150,0.065716
1380.0468,0.066558
1380.9787,0.067137
1381.9105,0.067647
1382.8423,0.067963
1383.7742,0.067943
1384.7060,0.067704
1385.6378,0.067243
1386.5697,0.067211
1387.5015,0.067994
1388.4333,0.068616
1389.3652,0.067701
1390.2970,0.066099
1391.2288,0.064985
1392.1607,0.064216
1393.0925,0.063546
1394.0244,0.063045
1394.9562,0.063084
1395.8880,0.063992
1396.8199,0.064363
1397.7517,0.063908
1398.6835,0.063605
1399.6154,0.064143
1400.5472,0.065001
1401.4790,0.064664
1402.4109,0.064118
1403.3427,0.064087
1404.2745,0.064158
1405.2064,0.064535
1406.1382,0.065544
1407.0700,0.065507
1408.0019,0.065055
1408.9337,0.065203
1409.8655,0.065562
1410.7974,0.065984
1411.7292,0.066070
1412.6610,0.066003
1413.5929,0.065741
1414.5247,0.065135
1415.4565,0.064659
1416.3884,0.064453
1417.3202,0.064637
1418.2520,0.065001
1419.1839,0.065325
1420.1157,0.067279
1421.0476,0.067900
1421.9794,0.065619
1422.9112,0.064000
1423.8431,0.063669
1424.7749,0.064583
1425.7067,0.064375
1426.6386,0.063044
1427.5704,0.062091
1428.5022,0.061451
1429.4341,0.060974
1430.3659,0.060851
1431.2977,0.060807
1432.2296,0.059890
1433.1614,0.058715
1434.0932,0.057873
1435.0251,0.057322
1435.9569,0.056538
1436.8887,0.056430
1437.8206,0.058597
1438.7524,0.059044
1439.6842,0.057516
1440.6161,0.056578
1441.5479,0.056359
1442.4797,0.056405
1443.4116,0.056723
1444.3434,0.057100
1445.2752,0.057510
1446.2071,0.058276
1447.1389,0.059003
1448.0707,0.060155
1449.0026,0.062041
1449.9344,0.062837
1450.8663,0.062439
1451.7981,0.062243
1452.7299,0.062215
1453.6618,0.061948
1454.5936,0.060957
1455.5254,0.060022
1456.4573,0.059929
1457.3891,0.060885
1458.3209,0.060894
1459.2528,0.059253
1460.1846,0.057308
1461.1164,0.054876
1462.0483,0.052351
1462.9801,0.050304
1463.9119,0.049108
1464.8438,0.048303
1465.7756,0.047964
1466.7074,0.047794
1467.6393,0.046779
1468.5711,0.045663
1469.5029,0.044627
1470.4348,0.043369
1471.3666,0.042427
1472.2984,0.042218
1473.2303,0.043130
1474.1621,0.044584
1475.0939,0.044610
1476.0258,0.043955
1476.9576,0.044275
1477.8895,0.044887
1478.8213,0.044457
1479.7531,0.043905
1480.6850,0.044139
1481.6168,0.044942
1482.5486,0.044974
1483.4805,0.044444
1484.4123,0.044046
1485.3441,0.043395
1486.2760,0.042818
1487.2078,0.042557
1488.1396,0.042580
1489.0715,0.042535
1490.0033,0.042205
1490.9351,0.042559
1491.8670,0.042411
1492.7988,0.040846
1493.7306,0.039671
1494.6625,0.038691
1495.5943,0.037735
1496.5261,0.037645
1497.4580,0.038687
1498.3898,0.038914
1499.3216,0.038729
1500.2535,0.039052
1501.1853,0.038649
1502.1171,0.037511
1503.0490,0.036683
1503.9808,0.036389
1504.9127,0.035947
1505.8445,0.035239
1506.7763,0.035901
1507.7082,0.039406
1508.6400,0.040571
1509.5718,0.039262
1510.5037,0.038455
1511.4355,0.037851
1512.3673,0.037310
1513.2992,0.037499
1514.2310,0.037329
1515.1628,0.036479
1516.0947,0.036164
1517.0265,0.036248
1517.9583,0.037255
1518.8902,0.038104
1519.8220,0.036551
1520.7538,0.035676
1521.6857,0.036970
1522.6175,0.038707
1523.5493,0.038418
1524.4812,0.037650
1525.4130,0.037241
1526.3448,0.037672
1527.2767,0.038078
1528.2085,0.037772
1529.1403,0.037505
1530.0722,0.037069
1531.0040,0.036562
1531.9359,0.036215
1532.8677,0.036315
1533.7995,0.037123
1534.7314,0.038237
1535.6632,0.038020
1536.5950,0.037034
1537.5269,0.036327
1538.4587,0.035949
1539.3905,0.036551
1540.3224,0.039532
1541.2542,0.041446
1542.1860,0.039654
1543.1179,0.039136
1544.0497,0.039208
1544.9815,0.039117
1545.9134,0.039847
1546.8452,0.040472
1547.7770,0.039645
1548.7089,0.038795
1549.6407,0.038728
1550.5725,0.039407
1551.5044,0.040105
1552.4362,0.039640
1553.3680,0.038949
1554.2999,0.038523
1555.2317,0.038804
1556.1635,0.039441
1557.0954,0.038585
1558.0272,0.037688
1558.9591,0.039539
1559.8909,0.044833
1560.8227,0.045911
1561.7546,0.044757
1562.6864,0.043314
1563.6182,0.042320
1564.5501,0.042247
1565.4819,0.042536
1566.4137,0.042547
1567.3456,0.042515
1568.2774,0.042528
1569.2092,0.042874
1570.1411,0.044437
1571.0729,0.046189
1572.0047,0.045662
1572.9366,0.044758
1573.8684,0.044721
1574.8002,0.044970
1575.7321,0.045345
1576.6639,0.046837
1577.5957,0.049437
1578.5276,0.049495
1579.4594,0.048455
1580.3912,0.048629
1581.3231,0.049196
1582.2549,0.049611
1583.1867,0.050205
1584.1186,0.050738
1585.0504,0.051246
1585.9822,0.051970
1586.9141,0.052535
1587.8459,0.052740
1588.7778,0.053285
1589.7096,0.054498
1590.6414,0.055878
1591.5733,0.056569
1592.5051,0.056783
1593.4369,0.057567
1594.3688,0.058493
1595.3006,0.059675
1596.2324,0.061358
1597.1643,0.062746
