Wavenumber,Intensity
650.4205,0.364984
651.3523,0.354685
652.2841,0.347057
653.2160,0.360173
654.1478,0.377692
655.0796,0.378266
656.0115,0.362736
656.9433,0.359938
657.8751,0.370969
658.8070,0.374511
659.7388,0.367091
660.6706,0.362997
661.6025,0.353574
662.5343,0.352258
663.4661,0.360946
664.3980,0.360001
665.3298,0.356040
666.2616,0.354913
667.1935,0.347157
668.1253,0.346239
669.0571,0.368250
669.9890,0.370208
670.9208,0.360098
671.8526,0.355189
672.7845,0.351985
673.7163,0.349012
674.6481,0.344517
675.5800,0.345963
676.5118,0.352740
677.4437,0.350729
678.3755,0.337768
679.3073,0.332879
680.2392,0.335961
681.1710,0.337925
682.1028,0.334949
683.0347,0.329354
683.9665,0.329189
684.8983,0.333712
685.8302,0.333401
686.7620,0.332807
687.6938,0.329332
688.6257,0.323078
689.5575,0.323796
690.4893,0.328320
691.4212,0.327472
692.3530,0.321568
693.2848,0.314178
694.2167,0.313152
695.1485,0.312601
696.0803,0.314897
697.0122,0.320158
697.9440,0.319069
698.8758,0.313887
699.8077,0.312849
700.7395,0.311268
701.6713,0.310028
702.6032,0.311576
703.5350,0.311080
704.4669,0.306145
705.3987,0.301694
706.3305,0.299008
707.2624,0.300678
708.1942,0.303858
709.1260,0.304815
710.0579,0.300791
710.9897,0.299105
711.9215,0.297623
712.8534,0.294975
713.7852,0.295235
714.7170,0.296944
715.6489,0.295329
716.5807,0.293256
717.5125,0.291217
718.4444,0.289913
719.3762,0.287268
720.3080,0.285610
721.2399,0.287772
722.1717,0.289003
723.1035,0.283179
724.0354,0.278558
724.9672,0.276034
725.8990,0.274700
726.8309,0.275708
727.7627,0.276488
728.6945,0.275714
729.6264,0.275275
730.5582,0.273670
731.4901,0.271170
732.4219,0.268005
733.3537,0.266711
734.2856,0.267595
735.2174,0.267032
736.1492,0.264921
737.0811,0.262282
738.0129,0.259279
738.9447,0.258416
739.8766,0.258049
740.8084,0.257613
741.7402,0.257648
742.6721,0.257891
743.6039,0.257403
744.5357,0.255271
745.4676,0.251733
746.3994,0.249919
747.3312,0.249473
748.2631,0.248483
749.1949,0.246150
750.1267,0.245452
751.0586,0.244217
751.9904,0.242463
752.9222,0.242576
753.8541,0.242574
754.7859,0.239909
755.7177,0.237831
756.6496,0.236635
757.5814,0.235062
758.5132,0.234716
759.4451,0.234070
760.3769,0.232776
761.3088,0.231739
762.2406,0.230364
763.1724,0.229248
764.1043,0.227810
765.0361,0.226902
765.9679,0.225340
766.8998,0.223242
767.8316,0.221707
768.7634,0.220639
769.6953,0.220192
770.6271,0.219642
771.5589,0.218458
772.4908,0.216674
773.4226,0.215776
774.3544,0.215747
775.2863,0.212900
776.2181,0.209428
777.1499,0.208412
778.0818,0.208722
779.0136,0.207655
779.9454,0.206132
780.8773,0.204127
781.8091,0.202118
782.7409,0.202283
783.6728,0.203318
784.6046,0.202094
785.5364,0.201275
786.4683,0.199559
787.4001,0.197500
788.3320,0.195173
789.2638,0.194931
790.1956,0.195637
791.1275,0.193315
792.0593,0.190940
792.9911,0.191132
793.9230,0.190949
794.8548,0.189892
795.7866,0.187840
796.7185,0.185625
797.6503,0.184845
798.5821,0.184833
799.5140,0.184180
800.4458,0.182897
801.3776,0.181264
802.3095,0.180341
803.2413,0.180163
804.1731,0.179050
805.1050,0.176957
806.0368,0.175479
806.9686,0.173536
807.9005,0.171770
808.8323,0.170579
809.7641,0.170308
810.6960,0.169894
811.6278,0.168475
812.5596,0.167098
813.4915,0.166217
814.4233,0.164503
815.3552,0.162451
816.2870,0.160216
817.2188,0.158642
818.1507,0.158012
819.0825,0.157126
820.0143,0.156139
820.9462,0.155109
821.8780,0.153842
822.8098,0.152939
823.7417,0.152089
824.6735,0.150881
825.6053,0.149599
826.5372,0.148211
827.4690,0.146391
828.4008,0.145920
829.3327,0.145453
830.2645,0.143665
831.1963,0.142240
832.1282,0.141813
833.0600,0.141150
833.9918,0.140309
834.9237,0.139287
835.8555,0.139032
836.7873,0.138108
837.7192,0.136332
838.6510,0.135200
839.5828,0.134298
840.5147,0.133216
841.4465,0.132863
842.3784,0.132162
843.3102,0.130898
844.2420,0.129970
845.1739,0.129264
846.1057,0.128224
847.0375,0.127411
847.9694,0.126523
848.9012,0.125537
849.8330,0.125117
850.7649,0.125198
851.6967,0.124701
852.6285,0.123048
853.5604,0.121678
854.4922,0.121826
855.4240,0.121393
856.3559,0.120451
857.2877,0.119372
858.2195,0.118481
859.1514,0.118443
860.0832,0.118762
861.0150,0.118740
861.9469,0.118688
862.8787,0.119175
863.8105,0.119645
864.7424,0.120243
865.6742,0.120655
866.6060,0.121497
867.5379,0.122585
868.4697,0.124460
869.4016,0.127055
870.3334,0.129851
871.2652,0.133572
872.1971,0.137726
873.1289,0.142668
874.0607,0.148050
874.9926,0.153235
875.9244,0.157588
876.8562,0.160743
877.7881,0.162352
878.7199,0.161286
879.6517,0.157953
880.5836,0.152786
881.5154,0.146603
882.4472,0.139643
883.3791,0.131828
884.3109,0.124940
885.2427,0.118786
886.1746,0.112960
887.1064,0.107334
888.0382,0.103283
888.9701,0.099728
889.9019,0.096514
890.8337,0.094078
891.7656,0.092162
892.6974,0.090068
893.6292,0.088495
894.5611,0.086969
895.4929,0.085621
896.4247,0.084499
897.3566,0.083311
898.2884,0.082620
899.2203,0.081604
900.1521,0.080263
901.0839,0.079375
902.0158,0.078786
902.9476,0.078507
903.8794,0.078056
904.8113,0.077236
905.7431,0.076557
906.6749,0.076114
907.6068,0.075572
908.5386,0.074897
909.4704,0.074039
910.4023,0.073699
911.3341,0.073556
912.2659,0.072570
913.1978,0.071514
914.1296,0.071224
915.0614,0.071157
915.9933,0.070965
916.9251,0.070591
917.8569,0.069598
918.7888,0.068538
919.7206,0.068327
920.6524,0.068118
921.5843,0.067438
922.5161,0.066857
923.4479,0.066598
924.3798,0.066340
925.3116,0.065968
926.2435,0.065731
927.1753,0.065194
928.1071,0.064564
929.0390,0.064541
929.9708,0.064117
930.9026,0.063462
931.8345,0.063092
932.7663,0.062864
933.6981,0.062413
934.6300,0.062041
935.5618,0.061951
936.4936,0.061878
937.4255,0.061417
938.3573,0.060949
939.2891,0.060774
940.2210,0.060706
941.1528,0.060670
942.0846,0.060151
943.0165,0.059345
943.9483,0.059199
944.8801,0.059143
945.8120,0.058856
946.7438,0.058591
947.6756,0.058567
948.6075,0.058567
949.5393,0.058333
950.4711,0.058092
951.4030,0.057922
952.3348,0.057522
953.2667,0.057448
954.1985,0.057665
955.1303,0.057192
956.0622,0.056831
956.9940,0.056557
957.9258,0.056015
958.8577,0.055735
959.7895,0.055799
960.7213,0.055562
961.6532,0.055202
962.5850,0.055339
963.5168,0.055527
964.4487,0.055349
965.3805,0.055010
966.3123,0.054736
967.2442,0.054500
968.1760,0.054397
969.1078,0.054387
970.0397,0.054477
970.9715,0.054472
971.9033,0.053945
972.8352,0.053568
973.7670,0.053684
974.6988,0.053724
975.6307,0.053721
976.5625,0.053862
977.4943,0.053675
978.4262,0.053614
979.3580,0.053682
980.2899,0.053609
981.2217,0.053744
982.1535,0.053828
983.0854,0.053766
984.0172,0.053658
984.9490,0.053763
985.8809,0.053779
986.8127,0.053687
987.7445,0.053527
988.6764,0.053527
989.6082,0.053768
990.5400,0.053703
991.4719,0.053776
992.4037,0.053938
993.3355,0.054067
994.2674,0.054513
995.1992,0.054811
996.1310,0.054737
997.0629,0.054762
997.9947,0.054735
998.9265,0.055013
999.8584,0.055514
1000.7902,0.055952
1001.7220,0.056232
1002.6539,0.055948
1003.5857,0.055915
1004.5175,0.056623
1005.4494,0.056943
1006.3812,0.057054
1007.3131,0.057493
1008.2449,0.057865
1009.1767,0.058081
1010.1086,0.058873
1011.0404,0.059535
1011.9722,0.060083
1012.9041,0.060852
1013.8359,0.061749
1014.7677,0.062471
1015.6996,0.063229
1016.6314,0.064169
1017.5632,0.065205
1018.4951,0.066357
1019.4269,0.067918
1020.3587,0.069506
1021.2906,0.070960
1022.2224,0.072803
1023.1542,0.075034
1024.0861,0.077404
1025.0179,0.079980
1025.9497,0.082799
1026.8816,0.086064
1027.8134,0.089482
1028.7452,0.093260
1029.6771,0.097817
1030.6089,0.103080
1031.5407,0.108934
1032.4726,0.115851
1033.4044,0.123839
1034.3362,0.133012
1035.2681,0.143321
1036.1999,0.155076
1037.1318,0.168266
1038.0636,0.182390
1038.9954,0.197423
1039.9273,0.212509
1040.8591,0.226418
1041.7909,0.238601
1042.7228,0.248021
1043.6546,0.253624
1044.5864,0.254668
1045.5183,0.250896
1046.4501,0.242719
1047.3819,0.231195
1048.3138,0.217031
1049.2456,0.201288
1050.1774,0.185358
1051.1093,0.169443
1052.0411,0.154241
1052.9729,0.140499
1053.9048,0.128105
1054.8366,0.116860
1055.7684,0.106916
1056.7003,0.098611
1057.6321,0.091793
1058.5639,0.086152
1059.4958,0.081379
1060.4276,0.077701
1061.3594,0.075081
1062.2913,0.072913
1063.2231,0.071440
1064.1550,0.070638
1065.0868,0.070081
1066.0186,0.070013
1066.9505,0.070265
1067.8823,0.070617
1068.8141,0.071378
1069.7460,0.072334
1070.6778,0.073683
1071.6096,0.075331
1072.5415,0.077220
1073.4733,0.079357
1074.4051,0.081536
1075.3370,0.083738
1076.2688,0.086391
1077.2006,0.089584
1078.1325,0.092688
1079.0643,0.095530
1079.9961,0.098646
1080.9280,0.101530
1081.8598,0.103828
1082.7916,0.106105
1083.7235,0.107969
1084.6553,0.108863
1085.5871,0.109213
1086.5190,0.108773
1087.4508,0.107415
1088.3826,0.105302
1089.3145,0.102382
1090.2463,0.098810
1091.1782,0.094821
1092.1100,0.090739
1093.0418,0.086394
1093.9737,0.081808
1094.9055,0.077352
1095.8373,0.073234
1096.7692,0.069613
1097.7010,0.066502
1098.6328,0.063576
1099.5647,0.060834
1100.4965,0.058576
1101.4283,0.056514
1102.3602,0.054693
1103.2920,0.053049
1104.2238,0.051752
1105.1557,0.050793
1106.0875,0.049746
1107.0193,0.048809
1107.9512,0.048139
1108.8830,0.047615
1109.8148,0.047168
1110.7467,0.046622
1111.6785,0.046164
1112.6103,0.045867
1113.5422,0.045667
1114.4740,0.045516
1115.4058,0.045338
1116.3377,0.045082
1117.2695,0.045163
1118.2014,0.045077
1119.1332,0.044819
1120.0650,0.044717
1120.9969,0.044588
1121.9287,0.044390
1122.8605,0.044429
1123.7924,0.044633
1124.7242,0.044731
1125.6560,0.044721
1126.5879,0.044592
1127.5197,0.044365
1128.4515,0.044071
1129.3834,0.043964
1130.3152,0.043910
1131.2470,0.043788
1132.1789,0.043449
1133.1107,0.043417
1134.0425,0.043560
1134.9744,0.043317
1135.9062,0.042911
1136.8380,0.042891
1137.7699,0.042942
1138.7017,0.042752
1139.6335,0.042496
1140.5654,0.042470
1141.4972,0.042354
1142.4290,0.042107
1143.3609,0.042062
1144.2927,0.041994
1145.2246,0.042112
1146.1564,0.042293
1147.0882,0.042110
1148.0201,0.041970
1148.9519,0.041986
1149.8837,0.041955
1150.8156,0.041812
1151.7474,0.041780
1152.6792,0.042068
1153.6111,0.042078
1154.5429,0.041809
1155.4747,0.041669
1156.4066,0.041830
1157.3384,0.041619
1158.2702,0.041482
1159.2021,0.041471
1160.1339,0.041335
1161.0657,0.041209
1161.9976,0.041150
1162.9294,0.040973
1163.8612,0.040622
1164.7931,0.040280
1165.7249,0.040021
1166.6567,0.039984
1167.5886,0.039895
1168.5204,0.039739
1169.4522,0.039589
1170.3841,0.039373
1171.3159,0.039355
1172.2477,0.039566
1173.1796,0.039587
1174.1114,0.039458
1175.0433,0.039341
1175.9751,0.039148
1176.9069,0.039097
1177.8388,0.039009
1178.7706,0.038964
1179.7024,0.038976
1180.6343,0.039011
1181.5661,0.039057
1182.4979,0.039110
1183.4298,0.039094
1184.3616,0.039186
1185.2934,0.039211
1186.2253,0.038934
1187.1571,0.038810
1188.0889,0.039005
1189.0208,0.038944
1189.9526,0.038897
1190.8844,0.039054
1191.8163,0.039266
1192.7481,0.039324
1193.6799,0.039381
1194.6118,0.039264
1195.5436,0.039170
1196.4754,0.039211
1197.4073,0.039148
1198.3391,0.039136
1199.2709,0.039391
1200.2028,0.039619
1201.1346,0.039536
1202.0665,0.039358
1202.9983,0.039461
1203.9301,0.039654
1204.8620,0.039594
1205.7938,0.039451
1206.7256,0.039288
1207.6575,0.039431
1208.5893,0.039493
1209.5211,0.039274
1210.4530,0.039482
1211.3848,0.039888
1212.3166,0.039657
1213.2485,0.039483
1214.1803,0.039722
1215.1121,0.039951
1216.0440,0.040157
1216.9758,0.040239
1217.9076,0.040056
1218.8395,0.040001
1219.7713,0.040292
1220.7031,0.040221
1221.6350,0.040042
1222.5668,0.040095
1223.4986,0.040217
1224.4305,0.040521
1225.3623,0.040678
1226.2941,0.040539
1227.2260,0.040383
1228.1578,0.040369
1229.0897,0.040592
1230.0215,0.040593
1230.9533,0.040552
1231.8852,0.040756
1232.8170,0.040895
1233.7488,0.041139
1234.6807,0.041386
1235.6125,0.041279
1236.5443,0.041155
1237.4762,0.041225
1238.4080,0.041562
1239.3398,0.041847
1240.2717,0.041816
1241.2035,0.041705
1242.1353,0.041749
1243.0672,0.042033
1243.9990,0.042334
1244.9308,0.042476
1245.8627,0.042560
1246.7945,0.042701
1247.7263,0.042685
1248.6582,0.042921
1249.5900,0.043336
1250.5218,0.043543
1251.4537,0.043744
1252.3855,0.043718
1253.3173,0.043605
1254.2492,0.043949
1255.1810,0.044350
1256.1129,0.044732
1257.0447,0.045022
1257.9765,0.045297
1258.9084,0.045762
1259.8402,0.046425
1260.7720,0.046986
1261.7039,0.047136
1262.6357,0.047497
1263.5675,0.048140
1264.4994,0.048683
1265.4312,0.049273
1266.3630,0.049661
1267.2949,0.049953
1268.2267,0.050560
1269.1585,0.051346
1270.0904,0.051925
1271.0222,0.052436
1271.9540,0.052704
1272.8859,0.053151
1273.8177,0.053568
1274.7495,0.053638
1275.6814,0.053505
1276.6132,0.053105
1277.5450,0.052532
1278.4769,0.052057
1279.4087,0.051570
1280.3405,0.051208
1281.2724,0.050959
1282.2042,0.050644
1283.1361,0.050240
1284.0679,0.049827
1284.9997,0.049542
1285.9316,0.049247
1286.8634,0.049156
1287.7952,0.049172
1288.7271,0.049126
1289.6589,0.049138
1290.5907,0.049098
1291.5226,0.049177
1292.4544,0.049479
1293.3862,0.049427
1294.3181,0.049383
1295.2499,0.049662
1296.1817,0.049701
1297.1136,0.049948
1298.0454,0.050249
1298.9772,0.050367
1299.9091,0.050544
1300.8409,0.050893
1301.7727,0.051400
1302.7046,0.051555
1303.6364,0.051649
1304.5682,0.051809
1305.5001,0.052152
1306.4319,0.052441
1307.3637,0.052667
1308.2956,0.052891
1309.2274,0.053323
1310.1592,0.053577
1311.0911,0.053466
1312.0229,0.053393
1312.9548,0.053610
1313.8866,0.054065
1314.8184,0.054487
1315.7503,0.054696
1316.6821,0.054683
1317.6139,0.054809
1318.5458,0.055361
1319.4776,0.055803
1320.4094,0.056117
1321.3413,0.056113
1322.2731,0.055863
1323.2049,0.055848
1324.1368,0.055744
1325.0686,0.055727
1326.0004,0.055955
1326.9323,0.055808
1327.8641,0.055563
1328.7959,0.055619
1329.7278,0.055546
1330.6596,0.055254
1331.5914,0.055087
1332.5233,0.055141
1333.4551,0.054821
1334.3869,0.054319
1335.3188,0.053914
1336.2506,0.053515
1337.1824,0.053168
1338.1143,0.052940
1339.0461,0.052931
1339.9780,0.053251
1340.9098,0.053552
1341.8416,0.053281
1342.7735,0.052319
1343.7053,0.051666
1344.6371,0.051397
1345.5690,0.051163
1346.5008,0.050846
1347.4326,0.050438
1348.3645,0.050158
1349.2963,0.049934
1350.2281,0.049540
1351.1600,0.049252
1352.0918,0.049010
1353.0236,0.049116
1353.9555,0.049283
1354.8873,0.049072
1355.8191,0.048931
1356.7510,0.048970
1357.6828,0.048928
1358.6146,0.048683
1359.5465,0.048403
1360.4783,0.048182
1361.4101,0.048650
1362.3420,0.049224
1363.2738,0.049622
1364.2056,0.050807
1365.1375,0.050895
1366.0693,0.050346
1367.0012,0.050612
1367.9330,0.051330
1368.8648,0.051901
1369.7967,0.052606
1370.7285,0.053468
1371.6603,0.054179
1372.5922,0.055102
1373.5240,0.056399
1374.4558,0.058713
1375.3877,0.061251
1376.3195,0.062157
1377.2513,0.062218
1378.1832,0.062596
1379.1150,0.063291
1380.0468,0.063763
1380.9787,0.064300
1381.9105,0.064902
1382.8423,0.065389
1383.7742,0.065548
1384.7060,0.065321
1385.6378,0.064807
1386.5697,0.064623
1387.5015,0.065102
1388.4333,0.065884
1389.3652,0.065532
1390.2970,0.064140
1391.2288,0.063180
1392.1607,0.062706
1393.0925,0.062131
1394.0244,0.061397
1394.9562,0.061583
1395.8880,0.062698
1396.8199,0.062899
1397.7517,0.062092
1398.6835,0.061790
1399.6154,0.062860
1400.5472,0.063932
1401.4790,0.063281
1402.4109,0.062507
1403.3427,0.062110
1404.2745,0.061975
1405.2064,0.062840
1406.1382,0.064155
1407.0700,0.064363
1408.0019,0.063749
1408.9337,0.063490
1409.8655,0.063621
1410.7974,0.063948
1411.7292,0.064068
1412.6610,0.064116
1413.5929,0.064133
1414.5247,0.063601
1415.4565,0.063094
1416.3884,0.062681
1417.3202,0.062594
1418.2520,0.063207
1419.1839,0.064025
1420.1157,0.065748
1421.0476,0.066155
1421.9794,0.064289
1422.9112,0.062936
1423.8431,0.062247
1424.7749,0.062550
1425.7067,0.062506
1426.6386,0.061322
1427.5704,0.060294
1428.5022,0.059586
1429.4341,0.059165
1430.3659,0.059452
1431.2977,0.059826
1432.2296,0.058866
1433.1614,0.057649
1434.0932,0.057001
1435.0251,0.056358
1435.9569,0.055610
1436.8887,0.055961
1437.8206,0.058050
1438.7524,0.058129
1439.6842,0.056397
1440.6161,0.055425
1441.5479,0.055306
1442.4797,0.055366
1443.4116,0.055541
1444.3434,0.055655
1445.2752,0.055745
1446.2071,0.056354
1447.1389,0.057387
1448.0707,0.058875
1449.0026,0.060912
1449.9344,0.061906
1450.8663,0.061346
1451.7981,0.060496
1452.7299,0.060313
1453.6618,0.060288
1454.5936,0.059755
1455.5254,0.059055
1456.4573,0.058699
1457.3891,0.059213
1458.3209,0.060711
1459.2528,0.059681
1460.1846,0.056921
1461.1164,0.054139
1462.0483,0.051872
1462.9801,0.050045
1463.9119,0.048798
1464.8438,0.048652
1465.7756,0.049065
1466.7074,0.048227
1467.6393,0.046505
1468.5711,0.045286
1469.5029,0.044540
1470.4348,0.043915
1471.3666,0.043168
1472.2984,0.042830
1473.2303,0.043947
1474.1621,0.045525
1475.0939,0.045585
1476.0258,0.045115
1476.9576,0.045363
1477.8895,0.045699
1478.8213,0.045136
1479.7531,0.044909
1480.6850,0.045234
1481.6168,0.045482
1482.5486,0.045527
1483.4805,0.045307
1484.4123,0.044982
1485.3441,0.044420
1486.2760,0.043562
1487.2078,0.043243
1488.1396,0.043775
1489.0715,0.044392
1490.0033,0.044334
1490.9351,0.044105
1491.8670,0.043833
1492.7988,0.042733
1493.7306,0.041525
1494.6625,0.040803
1495.5943,0.040218
1496.5261,0.039887
1497.4580,0.040908
1498.3898,0.041278
1499.3216,0.040869
1500.2535,0.040858
1501.1853,0.039868
1502.1171,0.038701
1503.0490,0.038434
1503.9808,0.038220
1504.9127,0.037257
1505.8445,0.036605
1506.7763,0.038271
1507.7082,0.042047
1508.6400,0.043543
1509.5718,0.042002
1510.5037,0.040544
1511.4355,0.039917
1512.3673,0.038911
1513.2992,0.038968
1514.2310,0.039202
1515.1628,0.038576
1516.0947,0.038599
1517.0265,0.038573
1517.9583,0.038698
1518.8902,0.039094
1519.8220,0.038006
1520.7538,0.037325
1521.6857,0.038701
1522.6175,0.040798
1523.5493,0.040970
1524.4812,0.040187
1525.4130,0.039488
1526.3448,0.040057
1527.2767,0.040240
1528.2085,0.039671
1529.1403,0.039747
1530.0722,0.040074
1531.0040,0.039744
1531.9359,0.039211
1532.8677,0.039325
1533.7995,0.040024
1534.7314,0.040729
1535.6632,0.040780
1536.5950,0.039844
1537.5269,0.038715
1538.4587,0.038155
1539.3905,0.038599
1540.3224,0.040746
1541.2542,0.042732
1542.1860,0.042491
1543.1179,0.042362
1544.0497,0.042408
1544.9815,0.042321
1545.9134,0.043098
1546.8452,0.043418
1547.7770,0.042166
1548.7089,0.041470
1549.6407,0.041557
1550.5725,0.041924
1551.5044,0.042630
1552.4362,0.042704
1553.3680,0.042084
1554.2999,0.041631
1555.2317,0.042120
1556.1635,0.042460
1557.0954,0.041716
1558.0272,0.042131
1558.9591,0.045671
1559.8909,0.050945
1560.8227,0.051678
1561.7546,0.049672
1562.6864,0.047156
1563.6182,0.045682
1564.5501,0.045500
1565.4819,0.045968
1566.4137,0.045972
1567.3456,0.045942
1568.2774,0.046160
1569.2092,0.046602
1570.1411,0.048407
1571.0729,0.050579
1572.0047,0.049789
1572.9366,0.048537
1573.8684,0.048391
1574.8002,0.048649
1575.7321,0.049345
1576.6639,0.051395
1577.5957,0.054341
1578.5276,0.054845
1579.4594,0.053969
1580.3912,0.053524
1581.3231,0.053473
1582.2549,0.053933
1583.1867,0.054631
1584.1186,0.055516
1585.0504,0.056648
1585.9822,0.057190
1586.9141,0.057085
1587.8459,0.057761
1588.7778,0.058893
1589.7096,0.059620
1590.6414,0.060660
1591.5733,0.061641
1592.5051,0.062364
1593.4369,0.063462
1594.3688,0.064588
1595.3006,0.066007
1596.2324,0.067275
1597.1643,0.068010
