Wavenumber,Intensity
650.4205,0.386410
651.3523,0.392178
652.2841,0.393747
653.2160,0.406547
654.1478,0.410910
655.0796,0.391888
656.0115,0.367007
656.9433,0.369301
657.8751,0.381197
658.8070,0.383173
659.7388,0.378619
660.6706,0.378100
661.6025,0.378299
662.5343,0.381521
663.4661,0.376629
664.3980,0.369209
665.3298,0.364309
666.2616,0.364205
667.1935,0.357336
668.1253,0.368634
669.0571,0.391206
669.9890,0.377726
670.9208,0.365913
671.8526,0.370831
672.7845,0.370751
673.7163,0.358186
674.6481,0.354264
675.5800,0.358173
676.5118,0.354599
677.4437,0.351089
678.3755,0.348446
679.3073,0.349668
680.2392,0.353036
681.1710,0.354495
682.1028,0.351981
683.0347,0.349779
683.9665,0.341931
684.8983,0.340725
685.8302,0.345063
686.7620,0.343867
687.6938,0.338001
688.6257,0.336924
689.5575,0.337123
690.4893,0.338588
691.4212,0.336266
692.3530,0.332342
693.2848,0.333066
694.2167,0.334467
695.1485,0.331987
696.0803,0.330104
697.0122,0.326070
697.9440,0.322353
698.8758,0.322636
699.8077,0.325465
700.7395,0.326417
701.6713,0.321112
702.6032,0.316332
703.5350,0.322066
704.4669,0.321142
705.3987,0.317473
706.3305,0.315589
707.2624,0.315445
708.1942,0.313848
709.1260,0.311825
710.0579,0.309572
710.9897,0.310379
711.9215,0.313208
712.8534,0.311789
713.7852,0.306243
714.7170,0.302459
715.6489,0.298068
716.5807,0.297857
717.5125,0.299645
718.4444,0.300863
719.3762,0.298739
720.3080,0.298213
721.2399,0.296723
722.1717,0.293176
723.1035,0.290886
724.0354,0.292368
724.9672,0.291271
725.8990,0.290612
726.8309,0.289398
727.7627,0.286512
728.6945,0.282408
729.6264,0.281954
730.5582,0.282932
731.4901,0.282681
732.4219,0.279222
733.3537,0.278214
734.2856,0.280010
735.2174,0.278116
736.1492,0.273037
737.0811,0.270355
738.0129,0.270210
738.9447,0.270089
739.8766,0.268427
740.8084,0.268036
741.7402,0.265445
742.6721,0.263705
743.6039,0.263022
744.5357,0.262691
745.4676,0.262136
746.3994,0.260242
747.3312,0.258305
748.2631,0.258007
749.1949,0.257050
750.1267,0.254154
751.0586,0.251432
751.9904,0.250358
752.9222,0.250382
753.8541,0.251129
754.7859,0.251706
755.7177,0.250870
756.6496,0.247169
757.5814,0.244087
758.5132,0.242348
759.4451,0.241131
760.3769,0.240633
761.3088,0.238367
762.2406,0.238911
763.1724,0.237964
764.1043,0.232673
765.0361,0.231399
765.9679,0.231898
766.8998,0.230598
767.8316,0.228962
768.7634,0.228726
769.6953,0.228785
770.6271,0.227923
771.5589,0.224844
772.4908,0.225426
773.4226,0.225306
774.3544,0.222511
775.2863,0.219620
776.2181,0.219326
777.1499,0.218862
778.0818,0.216989
779.0136,0.215391
779.9454,0.213575
780.8773,0.211357
781.8091,0.210774
782.7409,0.210310
783.6728,0.209345
784.6046,0.208123
785.5364,0.207192
786.4683,0.206014
787.4001,0.205092
788.3320,0.204615
789.2638,0.202951
790.1956,0.200280
791.1275,0.199674
792.0593,0.198680
792.9911,0.196923
793.9230,0.195842
794.8548,0.194254
795.7866,0.193323
796.7185,0.193924
797.6503,0.192858
798.5821,0.191336
799.5140,0.190121
800.4458,0.188127
801.3776,0.186012
802.3095,0.185985
803.2413,0.185494
804.1731,0.184136
805.1050,0.183134
806.0368,0.183628
806.9686,0.182182
807.9005,0.179209
808.8323,0.177700
809.7641,0.176880
810.6960,0.174729
811.6278,0.172659
812.5596,0.171930
813.4915,0.171281
814.4233,0.169645
815.3552,0.168517
816.2870,0.166547
817.2188,0.164754
818.1507,0.164616
819.0825,0.163748
820.0143,0.161777
820.9462,0.160836
821.8780,0.159648
822.8098,0.157733
823.7417,0.156813
824.6735,0.155864
825.6053,0.155197
826.5372,0.154604
827.4690,0.153740
828.4008,0.152577
829.3327,0.151025
830.2645,0.149951
831.1963,0.149202
832.1282,0.148634
833.0600,0.147425
833.9918,0.145608
834.9237,0.143899
835.8555,0.142798
836.7873,0.141991
837.7192,0.141685
838.6510,0.141102
839.5828,0.139699
840.5147,0.138473
841.4465,0.138074
842.3784,0.136884
843.3102,0.135639
844.2420,0.134993
845.1739,0.134758
846.1057,0.133710
847.0375,0.132212
847.9694,0.130902
848.9012,0.130395
849.8330,0.129122
850.7649,0.128116
851.6967,0.128700
852.6285,0.128574
853.5604,0.127114
854.4922,0.126473
855.4240,0.126007
856.3559,0.124953
857.2877,0.124056
858.2195,0.124303
859.1514,0.123755
860.0832,0.122836
861.0150,0.122383
861.9469,0.122847
862.8787,0.123040
863.8105,0.122645
864.7424,0.122474
865.6742,0.123030
866.6060,0.124137
867.5379,0.125410
868.4697,0.126404
869.4016,0.127747
870.3334,0.130412
871.2652,0.133713
872.1971,0.137318
873.1289,0.141506
874.0607,0.146056
874.9926,0.150168
875.9244,0.153815
876.8562,0.156668
877.7881,0.157279
878.7199,0.156533
879.6517,0.153755
880.5836,0.149134
881.5154,0.143101
882.4472,0.137136
883.3791,0.130582
884.3109,0.123623
885.2427,0.117749
886.1746,0.112755
887.1064,0.108291
888.0382,0.104671
888.9701,0.101581
889.9019,0.098941
890.8337,0.096288
891.7656,0.093985
892.6974,0.092750
893.6292,0.091590
894.5611,0.089897
895.4929,0.088657
896.4247,0.087662
897.3566,0.086627
898.2884,0.086227
899.2203,0.085867
900.1521,0.084250
901.0839,0.082615
902.0158,0.081962
902.9476,0.081374
903.8794,0.080627
904.8113,0.080314
905.7431,0.079662
906.6749,0.078620
907.6068,0.077818
908.5386,0.077392
909.4704,0.076903
910.4023,0.076489
911.3341,0.075791
912.2659,0.074950
913.1978,0.074013
914.1296,0.073469
915.0614,0.073424
915.9933,0.072743
916.9251,0.072396
917.8569,0.072253
918.7888,0.071266
919.7206,0.070499
920.6524,0.070591
921.5843,0.070688
922.5161,0.070182
923.4479,0.069348
924.3798,0.068660
925.3116,0.068069
926.2435,0.067769
927.1753,0.067697
928.1071,0.067466
929.0390,0.066882
929.9708,0.066471
930.9026,0.066312
931.8345,0.065773
932.7663,0.065527
933.6981,0.065214
934.6300,0.064855
935.5618,0.064232
936.4936,0.064001
937.4255,0.063925
938.3573,0.063478
939.2891,0.063059
940.2210,0.062852
941.1528,0.062755
942.0846,0.062349
943.0165,0.061660
943.9483,0.061409
944.8801,0.061252
945.8120,0.061203
946.7438,0.060865
947.6756,0.060390
948.6075,0.060051
949.5393,0.059896
950.4711,0.059796
951.4030,0.059421
952.3348,0.059060
953.2667,0.058826
954.1985,0.058820
955.1303,0.058827
956.0622,0.058575
956.9940,0.058377
957.9258,0.057842
958.8577,0.057533
959.7895,0.057227
960.7213,0.057111
961.6532,0.057378
962.5850,0.056952
963.5168,0.056626
964.4487,0.056760
965.3805,0.056686
966.3123,0.056692
967.2442,0.056573
968.1760,0.056139
969.1078,0.055734
970.0397,0.055698
970.9715,0.055801
971.9033,0.055776
972.8352,0.055536
973.7670,0.055584
974.6988,0.055494
975.6307,0.055096
976.5625,0.055121
977.4943,0.055059
978.4262,0.054817
979.3580,0.054816
980.2899,0.054589
981.2217,0.054435
982.1535,0.054832
983.0854,0.054883
984.0172,0.054424
984.9490,0.054383
985.8809,0.054523
986.8127,0.054589
987.7445,0.054617
988.6764,0.054373
989.6082,0.054268
990.5400,0.054532
991.4719,0.054606
992.4037,0.054623
993.3355,0.054941
994.2674,0.055118
995.1992,0.054847
996.1310,0.054762
997.0629,0.054925
997.9947,0.055028
998.9265,0.055329
999.8584,0.055754
1000.7902,0.055911
1001.7220,0.055817
1002.6539,0.055833
1003.5857,0.056045
1004.5175,0.056362
1005.4494,0.056693
1006.3812,0.057100
1007.3131,0.057318
1008.2449,0.057734
1009.1767,0.058335
1010.1086,0.058601
1011.0404,0.058995
1011.9722,0.059686
1012.9041,0.060308
1013.8359,0.060929
1014.7677,0.061396
1015.6996,0.062238
1016.6314,0.063185
1017.5632,0.064062
1018.4951,0.065019
1019.4269,0.066112
1020.3587,0.067200
1021.2906,0.068730
1022.2224,0.070512
1023.1542,0.072133
1024.0861,0.074185
1025.0179,0.076742
1025.9497,0.078990
1026.8816,0.081308
1027.8134,0.084419
1028.7452,0.087837
1029.6771,0.091534
1030.6089,0.095993
1031.5407,0.101067
1032.4726,0.107195
1033.4044,0.113991
1034.3362,0.121895
1035.2681,0.131165
1036.1999,0.141332
1037.1318,0.152916
1038.0636,0.165694
1038.9954,0.179067
1039.9273,0.192517
1040.8591,0.205494
1041.7909,0.216856
1042.7228,0.225651
1043.6546,0.231069
1044.5864,0.232318
1045.5183,0.229028
1046.4501,0.221703
1047.3819,0.210743
1048.3138,0.198032
1049.2456,0.184070
1050.1774,0.169265
1051.1093,0.154863
1052.0411,0.141022
1052.9729,0.128105
1053.9048,0.116934
1054.8366,0.107307
1055.7684,0.098946
1056.7003,0.091528
1057.6321,0.085481
1058.5639,0.080714
1059.4958,0.076805
1060.4276,0.073763
1061.3594,0.071445
1062.2913,0.069881
1063.2231,0.068715
1064.1550,0.067765
1065.0868,0.067147
1066.0186,0.066960
1066.9505,0.067012
1067.8823,0.067192
1068.8141,0.067836
1069.7460,0.068935
1070.6778,0.070107
1071.6096,0.071436
1072.5415,0.073253
1073.4733,0.075089
1074.4051,0.076895
1075.3370,0.079199
1076.2688,0.081673
1077.2006,0.083984
1078.1325,0.086351
1079.0643,0.089070
1079.9961,0.092050
1080.9280,0.094625
1081.8598,0.097017
1082.7916,0.099062
1083.7235,0.100572
1084.6553,0.101291
1085.5871,0.101439
1086.5190,0.101138
1087.4508,0.100077
1088.3826,0.098060
1089.3145,0.095389
1090.2463,0.092028
1091.1782,0.088347
1092.1100,0.084640
1093.0418,0.080769
1093.9737,0.076978
1094.9055,0.073266
1095.8373,0.069750
1096.7692,0.066545
1097.7010,0.063460
1098.6328,0.061025
1099.5647,0.059036
1100.4965,0.056942
1101.4283,0.055141
1102.3602,0.053720
1103.2920,0.052497
1104.2238,0.051530
1105.1557,0.050659
1106.0875,0.049939
1107.0193,0.049436
1107.9512,0.048823
1108.8830,0.047919
1109.8148,0.047142
1110.7467,0.046677
1111.6785,0.046425
1112.6103,0.046234
1113.5422,0.045970
1114.4740,0.045875
1115.4058,0.045878
1116.3377,0.045820
1117.2695,0.045832
1118.2014,0.045609
1119.1332,0.045234
1120.0650,0.045254
1120.9969,0.045471
1121.9287,0.045690
1122.8605,0.045680
1123.7924,0.045468
1124.7242,0.045432
1125.6560,0.045458
1126.5879,0.045148
1127.5197,0.044928
1128.4515,0.044874
1129.3834,0.044732
1130.3152,0.044770
1131.2470,0.044629
1132.1789,0.044407
1133.1107,0.044322
1134.0425,0.044440
1134.9744,0.044274
1135.9062,0.043948
1136.8380,0.043824
1137.7699,0.043921
1138.7017,0.043882
1139.6335,0.043621
1140.5654,0.043461
1141.4972,0.043346
1142.4290,0.043461
1143.3609,0.043341
1144.2927,0.043245
1145.2246,0.043228
1146.1564,0.043122
1147.0882,0.043001
1148.0201,0.043038
1148.9519,0.043158
1149.8837,0.043321
1150.8156,0.043417
1151.7474,0.043328
1152.6792,0.043182
1153.6111,0.042967
1154.5429,0.042835
1155.4747,0.042981
1156.4066,0.043132
1157.3384,0.042753
1158.2702,0.042583
1159.2021,0.042683
1160.1339,0.042415
1161.0657,0.042303
1161.9976,0.042293
1162.9294,0.041851
1163.8612,0.041392
1164.7931,0.041402
1165.7249,0.041410
1166.6567,0.041139
1167.5886,0.040954
1168.5204,0.041242
1169.4522,0.041317
1170.3841,0.040977
1171.3159,0.040844
1172.2477,0.040842
1173.1796,0.040779
1174.1114,0.040823
1175.0433,0.040790
1175.9751,0.040735
1176.9069,0.040875
1177.8388,0.040863
1178.7706,0.040630
1179.7024,0.040634
1180.6343,0.040735
1181.5661,0.040691
1182.4979,0.040592
1183.4298,0.040462
1184.3616,0.040160
1185.2934,0.040150
1186.2253,0.040396
1187.1571,0.040569
1188.0889,0.040658
1189.0208,0.040709
1189.9526,0.040697
1190.8844,0.040666
1191.8163,0.040584
1192.7481,0.040640
1193.6799,0.040840
1194.6118,0.040902
1195.5436,0.040876
1196.4754,0.041007
1197.4073,0.040939
1198.3391,0.040659
1199.2709,0.040654
1200.2028,0.040895
1201.1346,0.040998
1202.0665,0.041027
1202.9983,0.040886
1203.9301,0.040818
1204.8620,0.040812
1205.7938,0.040900
1206.7256,0.040951
1207.6575,0.041087
1208.5893,0.041143
1209.5211,0.040991
1210.4530,0.041203
1211.3848,0.041413
1212.3166,0.041311
1213.2485,0.041200
1214.1803,0.041313
1215.1121,0.041336
1216.0440,0.041480
1216.9758,0.041534
1217.9076,0.041504
1218.8395,0.041676
1219.7713,0.041719
1220.7031,0.041636
1221.6350,0.041678
1222.5668,0.041584
1223.4986,0.041590
1224.4305,0.041788
1225.3623,0.041946
1226.2941,0.042119
1227.2260,0.042176
1228.1578,0.041993
1229.0897,0.041965
1230.0215,0.041971
1230.9533,0.042062
1231.8852,0.042279
1232.8170,0.042393
1233.7488,0.042341
1234.6807,0.042288
1235.6125,0.042481
1236.5443,0.042697
1237.4762,0.042562
1238.4080,0.042626
1239.3398,0.042869
1240.2717,0.043084
1241.2035,0.043276
1242.1353,0.043393
1243.0672,0.043349
1243.9990,0.043469
1244.9308,0.043489
1245.8627,0.043393
1246.7945,0.043626
1247.7263,0.043911
1248.6582,0.044140
1249.5900,0.044214
1250.5218,0.044190
1251.4537,0.044274
1252.3855,0.044726
1253.3173,0.045112
1254.2492,0.045255
1255.1810,0.045350
1256.1129,0.045596
1257.0447,0.046049
1257.9765,0.046348
1258.9084,0.046647
1259.8402,0.046978
1260.7720,0.047257
1261.7039,0.047755
1262.6357,0.048108
1263.5675,0.048393
1264.4994,0.049056
1265.4312,0.049640
1266.3630,0.049989
1267.2949,0.050408
1268.2267,0.050966
1269.1585,0.051474
1270.0904,0.051998
1271.0222,0.052737
1271.9540,0.053174
1272.8859,0.053230
1273.8177,0.053283
1274.7495,0.053270
1275.6814,0.053062
1276.6132,0.052930
1277.5450,0.053032
1278.4769,0.052785
1279.4087,0.052310
1280.3405,0.052027
1281.2724,0.051515
1282.2042,0.050858
1283.1361,0.050440
1284.0679,0.050016
1284.9997,0.049582
1285.9316,0.049556
1286.8634,0.049644
1287.7952,0.049774
1288.7271,0.050031
1289.6589,0.049822
1290.5907,0.049393
1291.5226,0.049443
1292.4544,0.049593
1293.3862,0.049578
1294.3181,0.049467
1295.2499,0.049463
1296.1817,0.049877
1297.1136,0.050453
1298.0454,0.050642
1298.9772,0.050541
1299.9091,0.050705
1300.8409,0.051129
1301.7727,0.051243
1302.7046,0.051398
1303.6364,0.051675
1304.5682,0.051760
1305.5001,0.051885
1306.4319,0.052232
1307.3637,0.052620
1308.2956,0.052908
1309.2274,0.053286
1310.1592,0.053404
1311.0911,0.053243
1312.0229,0.053303
1312.9548,0.053810
1313.8866,0.054327
1314.8184,0.054524
1315.7503,0.054538
1316.6821,0.054524
1317.6139,0.054820
1318.5458,0.055194
1319.4776,0.055384
1320.4094,0.055528
1321.3413,0.055615
1322.2731,0.055623
1323.2049,0.055507
1324.1368,0.055557
1325.0686,0.055549
1326.0004,0.055614
1326.9323,0.055579
1327.8641,0.055234
1328.7959,0.055108
1329.7278,0.055075
1330.6596,0.055131
1331.5914,0.055097
1332.5233,0.054883
1333.4551,0.054675
1334.3869,0.054139
1335.3188,0.053488
1336.2506,0.053186
1337.1824,0.053147
1338.1143,0.052953
1339.0461,0.052693
1339.9780,0.052816
1340.9098,0.053153
1341.8416,0.053137
1342.7735,0.052452
1343.7053,0.051793
1344.6371,0.051490
1345.5690,0.051263
1346.5008,0.050819
1347.4326,0.050519
1348.3645,0.050467
1349.2963,0.050220
1350.2281,0.049913
1351.1600,0.049838
1352.0918,0.049957
1353.0236,0.049826
1353.9555,0.049404
1354.8873,0.049117
1355.8191,0.049195
1356.7510,0.049270
1357.6828,0.049077
1358.6146,0.048979
1359.5465,0.048784
1360.4783,0.048560
1361.4101,0.048901
1362.3420,0.049339
1363.2738,0.049907
1364.2056,0.051141
1365.1375,0.051348
1366.0693,0.050634
1367.0012,0.050552
1367.9330,0.051022
1368.8648,0.051720
1369.7967,0.052698
1370.7285,0.053146
1371.6603,0.053410
1372.5922,0.054196
1373.5240,0.055472
1374.4558,0.057479
1375.3877,0.059719
1376.3195,0.060880
1377.2513,0.061054
1378.1832,0.061236
1379.1150,0.061972
1380.0468,0.062617
1380.9787,0.062991
1381.9105,0.063278
1382.8423,0.063472
1383.7742,0.063570
1384.7060,0.063378
1385.6378,0.063191
1386.5697,0.063375
1387.5015,0.063838
1388.4333,0.064568
1389.3652,0.064477
1390.2970,0.063186
1391.2288,0.061869
1392.1607,0.060916
1393.0925,0.060191
1394.0244,0.059829
1394.9562,0.060235
1395.8880,0.061677
1396.8199,0.061849
1397.7517,0.060764
1398.6835,0.060479
1399.6154,0.061700
1400.5472,0.062998
1401.4790,0.062376
1402.4109,0.061452
1403.3427,0.061251
1404.2745,0.061228
1405.2064,0.061866
1406.1382,0.063354
1407.0700,0.063324
1408.0019,0.062459
1408.9337,0.062318
1409.8655,0.062427
1410.7974,0.062600
1411.7292,0.062908
1412.6610,0.063076
1413.5929,0.062829
1414.5247,0.062442
1415.4565,0.062125
1416.3884,0.062021
1417.3202,0.061875
1418.2520,0.061839
1419.1839,0.062741
1420.1157,0.064558
1421.0476,0.064859
1421.9794,0.062896
1422.9112,0.061593
1423.8431,0.061476
1424.7749,0.062057
1425.7067,0.061934
1426.6386,0.060591
1427.5704,0.059664
1428.5022,0.059458
1429.4341,0.059238
1430.3659,0.059174
1431.2977,0.059412
1432.2296,0.058745
1433.1614,0.057388
1434.0932,0.056418
1435.0251,0.056000
1435.9569,0.055660
1436.8887,0.056219
1437.8206,0.058378
1438.7524,0.058001
1439.6842,0.056077
1440.6161,0.055325
1441.5479,0.055238
1442.4797,0.055066
1443.4116,0.055150
1444.3434,0.055610
1445.2752,0.055920
1446.2071,0.056269
1447.1389,0.056748
1448.0707,0.057787
1449.0026,0.060079
1449.9344,0.061331
1450.8663,0.060720
1451.7981,0.060296
1452.7299,0.060612
1453.6618,0.060613
1454.5936,0.059706
1455.5254,0.058658
1456.4573,0.058144
1457.3891,0.059424
1458.3209,0.061226
1459.2528,0.059395
1460.1846,0.056667
1461.1164,0.054334
1462.0483,0.052407
1462.9801,0.051095
1463.9119,0.049845
1464.8438,0.048962
1465.7756,0.049200
1466.7074,0.049040
1467.6393,0.047841
1468.5711,0.046693
1469.5029,0.045809
1470.4348,0.045020
1471.3666,0.044300
1472.2984,0.044376
1473.2303,0.045896
1474.1621,0.047534
1475.0939,0.047420
1476.0258,0.046396
1476.9576,0.046224
1477.8895,0.046912
1478.8213,0.046743
1479.7531,0.046256
1480.6850,0.046150
1481.6168,0.046362
1482.5486,0.046690
1483.4805,0.046700
1484.4123,0.046086
1485.3441,0.045351
1486.2760,0.045193
1487.2078,0.045289
1488.1396,0.045702
1489.0715,0.046206
1490.0033,0.045929
1490.9351,0.046221
1491.8670,0.046627
1492.7988,0.045288
1493.7306,0.043501
1494.6625,0.042301
1495.5943,0.041512
1496.5261,0.041453
1497.4580,0.042811
1498.3898,0.043137
1499.3216,0.042403
1500.2535,0.042551
1501.1853,0.042350
1502.1171,0.041183
1503.0490,0.040711
1503.9808,0.040412
1504.9127,0.039153
1505.8445,0.038397
1506.7763,0.040200
1507.7082,0.045147
1508.6400,0.046257
1509.5718,0.044269
1510.5037,0.043268
1511.4355,0.042581
1512.3673,0.041769
1513.2992,0.041720
1514.2310,0.041660
1515.1628,0.040884
1516.0947,0.040826
1517.0265,0.041554
1517.9583,0.042296
1518.8902,0.042432
1519.8220,0.041593
1520.7538,0.041021
1521.6857,0.041991
1522.6175,0.043797
1523.5493,0.043632
1524.4812,0.042526
1525.4130,0.042024
1526.3448,0.042502
1527.2767,0.043118
1528.2085,0.042962
1529.1403,0.043032
1530.0722,0.043043
1531.0040,0.042335
1531.9359,0.041789
1532.8677,0.042426
1533.7995,0.043603
1534.7314,0.044484
1535.6632,0.044574
1536.5950,0.043402
1537.5269,0.042293
1538.4587,0.041458
1539.3905,0.041442
1540.3224,0.044223
1541.2542,0.046683
1542.1860,0.045725
1543.1179,0.045691
1544.0497,0.046098
1544.9815,0.045483
1545.9134,0.045236
1546.8452,0.045806
1547.7770,0.045360
1548.7089,0.044352
1549.6407,0.044312
1550.5725,0.045449
1551.5044,0.046680
1552.4362,0.046234
1553.3680,0.045113
1554.2999,0.044484
1555.2317,0.045233
1556.1635,0.045982
1557.0954,0.045174
1558.0272,0.044880
1558.9591,0.047539
1559.8909,0.053568
1560.8227,0.055223
1561.7546,0.053035
1562.6864,0.050319
1563.6182,0.048877
1564.5501,0.048556
1565.4819,0.048802
1566.4137,0.049540
1567.3456,0.050020
1568.2774,0.050004
1569.2092,0.050293
1570.1411,0.052125
1571.0729,0.054377
1572.0047,0.053608
1572.9366,0.052180
1573.8684,0.051912
1574.8002,0.052426
1575.7321,0.053191
1576.6639,0.054883
1577.5957,0.058246
1578.5276,0.059006
1579.4594,0.057609
1580.3912,0.057166
1581.3231,0.058018
1582.2549,0.058901
1583.1867,0.059342
1584.1186,0.059815
1585.0504,0.060444
1585.9822,0.061438
1586.9141,0.062366
1587.8459,0.063069
1588.7778,0.063784
1589.7096,0.064699
1590.6414,0.065655
1591.5733,0.066638
1592.5051,0.067630
1593.4369,0.068473
1594.3688,0.069450
1595.3006,0.070767
1596.2324,0.072088
1597.1643,0.073357
