Wavenumber,Intensity
650.4205,0.385591
651.3523,0.396813
652.2841,0.380971
653.2160,0.365054
654.1478,0.367833
655.0796,0.375907
656.0115,0.378867
656.9433,0.379048
657.8751,0.372288
658.8070,0.367472
659.7388,0.367154
660.6706,0.372089
661.6025,0.368541
662.5343,0.363608
663.4661,0.367201
664.3980,0.367525
665.3298,0.363934
666.2616,0.365304
667.1935,0.356050
668.1253,0.347472
669.0571,0.363423
669.9890,0.360287
670.9208,0.357818
671.8526,0.365475
672.7845,0.366812
673.7163,0.360594
674.6481,0.353372
675.5800,0.353793
676.5118,0.355133
677.4437,0.356625
678.3755,0.350275
679.3073,0.345748
680.2392,0.345271
681.1710,0.346418
682.1028,0.342403
683.0347,0.339850
683.9665,0.341862
684.8983,0.346512
685.8302,0.340737
686.7620,0.337371
687.6938,0.338682
688.6257,0.338403
689.5575,0.338887
690.4893,0.339717
691.4212,0.336856
692.3530,0.336704
693.2848,0.335167
694.2167,0.330056
695.1485,0.324664
696.0803,0.324234
697.0122,0.323495
697.9440,0.323893
698.8758,0.325435
699.8077,0.325739
700.7395,0.321288
701.6713,0.319327
702.6032,0.318780
703.5350,0.318052
704.4669,0.316490
705.3987,0.316820
706.3305,0.313482
707.2624,0.312093
708.1942,0.312728
709.1260,0.313072
710.0579,0.310678
710.9897,0.305466
711.9215,0.302861
712.8534,0.304867
713.7852,0.305356
714.7170,0.304273
715.6489,0.304139
716.5807,0.301880
717.5125,0.298394
718.4444,0.298782
719.3762,0.295907
720.3080,0.292010
721.2399,0.290526
722.1717,0.288973
723.1035,0.285560
724.0354,0.285751
724.9672,0.285869
725.8990,0.286692
726.8309,0.286699
727.7627,0.284526
728.6945,0.281167
729.6264,0.280002
730.5582,0.281520
731.4901,0.281316
732.4219,0.277634
733.3537,0.275507
734.2856,0.275949
735.2174,0.276521
736.1492,0.274317
737.0811,0.271340
738.0129,0.270858
738.9447,0.270233
739.8766,0.267490
740.8084,0.263780
741.7402,0.264830
742.6721,0.267311
743.6039,0.264478
744.5357,0.259010
745.4676,0.257163
746.3994,0.258076
747.3312,0.255729
748.2631,0.253430
749.1949,0.253036
750.1267,0.251584
751.0586,0.250024
751.9904,0.250065
752.9222,0.248486
753.8541,0.246165
754.7859,0.244892
755.7177,0.245171
756.6496,0.243506
757.5814,0.242043
758.5132,0.241561
759.4451,0.240609
760.3769,0.239328
761.3088,0.239163
762.2406,0.237974
763.1724,0.234564
764.1043,0.230682
765.0361,0.230877
765.9679,0.231686
766.8998,0.229546
767.8316,0.227740
768.7634,0.228187
769.6953,0.227119
770.6271,0.225161
771.5589,0.225378
772.4908,0.225455
773.4226,0.223973
774.3544,0.221621
775.2863,0.218556
776.2181,0.216180
777.1499,0.213755
778.0818,0.212769
779.0136,0.213211
779.9454,0.213493
780.8773,0.211427
781.8091,0.210721
782.7409,0.210926
783.6728,0.209377
784.6046,0.207039
785.5364,0.205641
786.4683,0.203235
787.4001,0.201679
788.3320,0.201606
789.2638,0.200717
790.1956,0.198122
791.1275,0.196310
792.0593,0.195906
792.9911,0.195577
793.9230,0.193903
794.8548,0.193593
795.7866,0.193249
796.7185,0.192252
797.6503,0.191001
798.5821,0.189848
799.5140,0.187890
800.4458,0.186806
801.3776,0.186626
802.3095,0.185937
803.2413,0.183135
804.1731,0.182055
805.1050,0.181954
806.0368,0.181003
806.9686,0.179904
807.9005,0.178073
808.8323,0.176374
809.7641,0.175422
810.6960,0.173707
811.6278,0.171219
812.5596,0.169178
813.4915,0.169280
814.4233,0.169127
815.3552,0.167217
816.2870,0.165221
817.2188,0.165430
818.1507,0.164640
819.0825,0.162448
820.0143,0.160893
820.9462,0.160280
821.8780,0.158820
822.8098,0.157437
823.7417,0.155890
824.6735,0.154467
825.6053,0.153208
826.5372,0.151942
827.4690,0.151308
828.4008,0.150967
829.3327,0.150243
830.2645,0.149190
831.1963,0.147323
832.1282,0.146677
833.0600,0.145926
833.9918,0.144396
834.9237,0.143157
835.8555,0.141988
836.7873,0.141996
837.7192,0.141337
838.6510,0.139166
839.5828,0.138959
840.5147,0.137846
841.4465,0.136331
842.3784,0.136160
843.3102,0.135853
844.2420,0.134709
845.1739,0.133767
846.1057,0.133080
847.0375,0.132242
847.9694,0.130514
848.9012,0.129566
849.8330,0.128820
850.7649,0.128138
851.6967,0.127207
852.6285,0.126179
853.5604,0.125843
854.4922,0.125901
855.4240,0.125117
856.3559,0.123886
857.2877,0.123004
858.2195,0.122865
859.1514,0.122978
860.0832,0.122690
861.0150,0.122183
861.9469,0.122268
862.8787,0.122385
863.8105,0.122205
864.7424,0.122487
865.6742,0.122742
866.6060,0.123464
867.5379,0.124993
868.4697,0.126722
869.4016,0.128309
870.3334,0.130401
871.2652,0.133935
872.1971,0.138168
873.1289,0.142064
874.0607,0.146463
874.9926,0.151748
875.9244,0.156416
876.8562,0.158821
877.7881,0.159531
878.7199,0.159182
879.6517,0.156228
880.5836,0.150907
881.5154,0.144387
882.4472,0.137335
883.3791,0.130555
884.3109,0.124660
885.2427,0.118353
886.1746,0.112744
887.1064,0.108666
888.0382,0.104741
888.9701,0.101079
889.9019,0.098330
890.8337,0.095773
891.7656,0.093605
892.6974,0.091826
893.6292,0.090182
894.5611,0.088837
895.4929,0.088277
896.4247,0.087276
897.3566,0.085844
898.2884,0.084760
899.2203,0.084109
900.1521,0.083030
901.0839,0.081633
902.0158,0.081302
902.9476,0.081083
903.8794,0.080030
904.8113,0.078933
905.7431,0.078311
906.6749,0.077987
907.6068,0.077260
908.5386,0.076860
909.4704,0.076306
910.4023,0.075199
911.3341,0.074372
912.2659,0.074029
913.1978,0.073999
914.1296,0.073797
915.0614,0.073265
915.9933,0.072737
916.9251,0.072069
917.8569,0.071487
918.7888,0.071016
919.7206,0.070477
920.6524,0.070208
921.5843,0.069680
922.5161,0.069091
923.4479,0.068637
924.3798,0.067761
925.3116,0.067394
926.2435,0.067204
927.1753,0.066868
928.1071,0.066559
929.0390,0.066350
929.9708,0.066016
930.9026,0.065606
931.8345,0.064842
932.7663,0.064140
933.6981,0.064031
934.6300,0.063998
935.5618,0.063529
936.4936,0.062982
937.4255,0.062687
938.3573,0.062670
939.2891,0.062702
940.2210,0.062097
941.1528,0.061466
942.0846,0.061308
943.0165,0.061351
943.9483,0.061439
944.8801,0.061096
945.8120,0.060214
946.7438,0.059682
947.6756,0.059679
948.6075,0.059823
949.5393,0.059617
950.4711,0.059133
951.4030,0.058723
952.3348,0.058440
953.2667,0.058375
954.1985,0.058367
955.1303,0.057992
956.0622,0.057868
956.9940,0.057867
957.9258,0.057622
958.8577,0.057291
959.7895,0.057037
960.7213,0.056906
961.6532,0.056645
962.5850,0.056499
963.5168,0.056585
964.4487,0.056777
965.3805,0.056506
966.3123,0.056079
967.2442,0.055845
968.1760,0.055747
969.1078,0.055384
970.0397,0.055271
970.9715,0.055211
971.9033,0.055194
972.8352,0.055226
973.7670,0.054949
974.6988,0.054349
975.6307,0.054069
976.5625,0.054279
977.4943,0.054686
978.4262,0.054868
979.3580,0.054648
980.2899,0.054632
981.2217,0.054553
982.1535,0.054492
983.0854,0.054440
984.0172,0.054371
984.9490,0.054482
985.8809,0.054325
986.8127,0.054149
987.7445,0.054242
988.6764,0.053991
989.6082,0.053817
990.5400,0.054075
991.4719,0.054264
992.4037,0.054427
993.3355,0.054639
994.2674,0.054596
995.1992,0.054709
996.1310,0.054990
997.0629,0.054972
997.9947,0.054695
998.9265,0.054910
999.8584,0.055361
1000.7902,0.055661
1001.7220,0.055786
1002.6539,0.055858
1003.5857,0.055989
1004.5175,0.056188
1005.4494,0.056460
1006.3812,0.056794
1007.3131,0.057393
1008.2449,0.057826
1009.1767,0.058233
1010.1086,0.058835
1011.0404,0.059316
1011.9722,0.059585
1012.9041,0.060207
1013.8359,0.060999
1014.7677,0.061622
1015.6996,0.062403
1016.6314,0.063348
1017.5632,0.063954
1018.4951,0.064952
1019.4269,0.066450
1020.3587,0.068117
1021.2906,0.069804
1022.2224,0.071264
1023.1542,0.072904
1024.0861,0.074853
1025.0179,0.077216
1025.9497,0.079799
1026.8816,0.082714
1027.8134,0.085792
1028.7452,0.089256
1029.6771,0.093352
1030.6089,0.098000
1031.5407,0.103322
1032.4726,0.109619
1033.4044,0.117061
1034.3362,0.125571
1035.2681,0.135223
1036.1999,0.146093
1037.1318,0.158073
1038.0636,0.171157
1038.9954,0.185208
1039.9273,0.199301
1040.8591,0.212808
1041.7909,0.224285
1042.7228,0.233012
1043.6546,0.238376
1044.5864,0.239647
1045.5183,0.236065
1046.4501,0.228286
1047.3819,0.217389
1048.3138,0.204331
1049.2456,0.189854
1050.1774,0.174639
1051.1093,0.159339
1052.0411,0.144998
1052.9729,0.131832
1053.9048,0.119844
1054.8366,0.109619
1055.7684,0.101038
1056.7003,0.093546
1057.6321,0.087046
1058.5639,0.081829
1059.4958,0.077998
1060.4276,0.075044
1061.3594,0.072468
1062.2913,0.070627
1063.2231,0.069170
1064.1550,0.068157
1065.0868,0.067716
1066.0186,0.067555
1066.9505,0.067739
1067.8823,0.068302
1068.8141,0.068787
1069.7460,0.069539
1070.6778,0.070916
1071.6096,0.072611
1072.5415,0.074357
1073.4733,0.076204
1074.4051,0.078132
1075.3370,0.080415
1076.2688,0.083150
1077.2006,0.085702
1078.1325,0.088316
1079.0643,0.090986
1079.9961,0.093903
1080.9280,0.096639
1081.8598,0.098845
1082.7916,0.100837
1083.7235,0.102548
1084.6553,0.103730
1085.5871,0.104103
1086.5190,0.103552
1087.4508,0.102154
1088.3826,0.100287
1089.3145,0.097592
1090.2463,0.093967
1091.1782,0.090215
1092.1100,0.086472
1093.0418,0.082282
1093.9737,0.078011
1094.9055,0.074308
1095.8373,0.070844
1096.7692,0.067491
1097.7010,0.064488
1098.6328,0.061617
1099.5647,0.059363
1100.4965,0.057330
1101.4283,0.055512
1102.3602,0.054025
1103.2920,0.052570
1104.2238,0.051394
1105.1557,0.050349
1106.0875,0.049462
1107.0193,0.048786
1107.9512,0.048153
1108.8830,0.047555
1109.8148,0.047219
1110.7467,0.046693
1111.6785,0.046173
1112.6103,0.046018
1113.5422,0.046011
1114.4740,0.045986
1115.4058,0.045905
1116.3377,0.045595
1117.2695,0.045199
1118.2014,0.044973
1119.1332,0.045017
1120.0650,0.045099
1120.9969,0.045102
1121.9287,0.045204
1122.8605,0.045230
1123.7924,0.045038
1124.7242,0.044849
1125.6560,0.044809
1126.5879,0.044759
1127.5197,0.044404
1128.4515,0.044220
1129.3834,0.044351
1130.3152,0.044463
1131.2470,0.044545
1132.1789,0.044468
1133.1107,0.044330
1134.0425,0.044114
1134.9744,0.043811
1135.9062,0.043648
1136.8380,0.043449
1137.7699,0.043359
1138.7017,0.043237
1139.6335,0.043207
1140.5654,0.043170
1141.4972,0.042896
1142.4290,0.042723
1143.3609,0.042651
1144.2927,0.042759
1145.2246,0.042796
1146.1564,0.042796
1147.0882,0.042731
1148.0201,0.042709
1148.9519,0.042846
1149.8837,0.042753
1150.8156,0.042678
1151.7474,0.042835
1152.6792,0.043111
1153.6111,0.042996
1154.5429,0.042616
1155.4747,0.042532
1156.4066,0.042647
1157.3384,0.042529
1158.2702,0.042389
1159.2021,0.042310
1160.1339,0.042048
1161.0657,0.041806
1161.9976,0.041710
1162.9294,0.041465
1163.8612,0.041268
1164.7931,0.041245
1165.7249,0.040948
1166.6567,0.040712
1167.5886,0.040869
1168.5204,0.040806
1169.4522,0.040541
1170.3841,0.040621
1171.3159,0.040463
1172.2477,0.040314
1173.1796,0.040417
1174.1114,0.040333
1175.0433,0.040187
1175.9751,0.040272
1176.9069,0.040414
1177.8388,0.040372
1178.7706,0.040406
1179.7024,0.040392
1180.6343,0.040219
1181.5661,0.039964
1182.4979,0.039798
1183.4298,0.039885
1184.3616,0.040074
1185.2934,0.040055
1186.2253,0.040090
1187.1571,0.040148
1188.0889,0.040273
1189.0208,0.040371
1189.9526,0.040235
1190.8844,0.040431
1191.8163,0.040611
1192.7481,0.040503
1193.6799,0.040296
1194.6118,0.040321
1195.5436,0.040424
1196.4754,0.040514
1197.4073,0.040429
1198.3391,0.040255
1199.2709,0.040310
1200.2028,0.040326
1201.1346,0.040112
1202.0665,0.040144
1202.9983,0.040331
1203.9301,0.040567
1204.8620,0.040636
1205.7938,0.040561
1206.7256,0.040512
1207.6575,0.040491
1208.5893,0.040696
1209.5211,0.040951
1210.4530,0.040880
1211.3848,0.040705
1212.3166,0.040792
1213.2485,0.040833
1214.1803,0.040717
1215.1121,0.040687
1216.0440,0.040614
1216.9758,0.040645
1217.9076,0.040997
1218.8395,0.041093
1219.7713,0.041089
1220.7031,0.041228
1221.6350,0.041226
1222.5668,0.041170
1223.4986,0.040999
1224.4305,0.041038
1225.3623,0.041295
1226.2941,0.041555
1227.2260,0.041499
1228.1578,0.041443
1229.0897,0.041603
1230.0215,0.041613
1230.9533,0.041641
1231.8852,0.041878
1232.8170,0.041997
1233.7488,0.041988
1234.6807,0.042006
1235.6125,0.042184
1236.5443,0.042407
1237.4762,0.042486
1238.4080,0.042372
1239.3398,0.042499
1240.2717,0.042724
1241.2035,0.042632
1242.1353,0.042514
1243.0672,0.042704
1243.9990,0.043043
1244.9308,0.043241
1245.8627,0.043373
1246.7945,0.043437
1247.7263,0.043627
1248.6582,0.043724
1249.5900,0.043827
1250.5218,0.043908
1251.4537,0.044059
1252.3855,0.044302
1253.3173,0.044677
1254.2492,0.044981
1255.1810,0.045155
1256.1129,0.045422
1257.0447,0.045695
1257.9765,0.045834
1258.9084,0.046301
1259.8402,0.046808
1260.7720,0.046998
1261.7039,0.047370
1262.6357,0.047926
1263.5675,0.048410
1264.4994,0.048818
1265.4312,0.049437
1266.3630,0.050202
1267.2949,0.050733
1268.2267,0.051114
1269.1585,0.051433
1270.0904,0.051758
1271.0222,0.052306
1271.9540,0.052771
1272.8859,0.053005
1273.8177,0.053073
1274.7495,0.053102
1275.6814,0.053233
1276.6132,0.053071
1277.5450,0.052658
1278.4769,0.052375
1279.4087,0.051988
1280.3405,0.051431
1281.2724,0.051085
1282.2042,0.050824
1283.1361,0.050464
1284.0679,0.050044
1284.9997,0.049774
1285.9316,0.049592
1286.8634,0.049358
1287.7952,0.049260
1288.7271,0.049314
1289.6589,0.049253
1290.5907,0.049135
1291.5226,0.049261
1292.4544,0.049326
1293.3862,0.049379
1294.3181,0.049734
1295.2499,0.050017
1296.1817,0.050083
1297.1136,0.050105
1298.0454,0.050297
1298.9772,0.050514
1299.9091,0.050725
1300.8409,0.050979
1301.7727,0.051285
1302.7046,0.051379
1303.6364,0.051445
1304.5682,0.051783
1305.5001,0.052070
1306.4319,0.052359
1307.3637,0.052632
1308.2956,0.052948
1309.2274,0.053360
1310.1592,0.053399
1311.0911,0.053251
1312.0229,0.053411
1312.9548,0.053846
1313.8866,0.054348
1314.8184,0.054394
1315.7503,0.054283
1316.6821,0.054435
1317.6139,0.054941
1318.5458,0.055346
1319.4776,0.055441
1320.4094,0.055527
1321.3413,0.055682
1322.2731,0.055812
1323.2049,0.055678
1324.1368,0.055627
1325.0686,0.055787
1326.0004,0.055658
1326.9323,0.055526
1327.8641,0.055661
1328.7959,0.055774
1329.7278,0.055761
1330.6596,0.055529
1331.5914,0.055137
1332.5233,0.055004
1333.4551,0.054828
1334.3869,0.054214
1335.3188,0.053563
1336.2506,0.053198
1337.1824,0.053159
1338.1143,0.053222
1339.0461,0.053239
1339.9780,0.053395
1340.9098,0.053300
1341.8416,0.052828
1342.7735,0.052165
1343.7053,0.051712
1344.6371,0.051325
1345.5690,0.051016
1346.5008,0.050903
1347.4326,0.050770
1348.3645,0.050486
1349.2963,0.050069
1350.2281,0.049891
1351.1600,0.049822
1352.0918,0.049517
1353.0236,0.049263
1353.9555,0.049105
1354.8873,0.049153
1355.8191,0.049335
1356.7510,0.049213
1357.6828,0.048971
1358.6146,0.048777
1359.5465,0.048639
1360.4783,0.048627
1361.4101,0.048902
1362.3420,0.049238
1363.2738,0.049897
1364.2056,0.050985
1365.1375,0.050962
1366.0693,0.050168
1367.0012,0.050286
1367.9330,0.050997
1368.8648,0.051767
1369.7967,0.052681
1370.7285,0.053237
1371.6603,0.053641
1372.5922,0.054568
1373.5240,0.055937
1374.4558,0.057899
1375.3877,0.060227
1376.3195,0.061403
1377.2513,0.061312
1378.1832,0.061425
1379.1150,0.062301
1380.0468,0.063128
1380.9787,0.063386
1381.9105,0.063722
1382.8423,0.064217
1383.7742,0.064305
1384.7060,0.064285
1385.6378,0.064107
1386.5697,0.063849
1387.5015,0.064326
1388.4333,0.065232
1389.3652,0.064734
1390.2970,0.063422
1391.2288,0.062422
1392.1607,0.061616
1393.0925,0.061089
1394.0244,0.060580
1394.9562,0.060631
1395.8880,0.061672
1396.8199,0.061847
1397.7517,0.061228
1398.6835,0.061159
1399.6154,0.061866
1400.5472,0.062458
1401.4790,0.061938
1402.4109,0.061478
1403.3427,0.061524
1404.2745,0.061559
1405.2064,0.062270
1406.1382,0.063697
1407.0700,0.063982
1408.0019,0.063268
1408.9337,0.062954
1409.8655,0.063105
1410.7974,0.063353
1411.7292,0.063461
1412.6610,0.063512
1413.5929,0.063560
1414.5247,0.063106
1415.4565,0.062211
1416.3884,0.062039
1417.3202,0.062438
1418.2520,0.062681
1419.1839,0.063026
1420.1157,0.064453
1421.0476,0.065005
1421.9794,0.063577
1422.9112,0.062401
1423.8431,0.061878
1424.7749,0.062160
1425.7067,0.062044
1426.6386,0.061137
1427.5704,0.060418
1428.5022,0.059802
1429.4341,0.059340
1430.3659,0.059478
1431.2977,0.059480
1432.2296,0.058423
1433.1614,0.057121
1434.0932,0.056427
1435.0251,0.056144
1435.9569,0.055607
1436.8887,0.056020
1437.8206,0.058261
1438.7524,0.058111
1439.6842,0.056372
1440.6161,0.055552
1441.5479,0.055386
1442.4797,0.055394
1443.4116,0.055453
1444.3434,0.055785
1445.2752,0.056110
1446.2071,0.056468
1447.1389,0.057346
1448.0707,0.058541
1449.0026,0.060345
1449.9344,0.061276
1450.8663,0.060970
1451.7981,0.060797
1452.7299,0.060567
1453.6618,0.060284
1454.5936,0.060020
1455.5254,0.059536
1456.4573,0.059073
1457.3891,0.059900
1458.3209,0.060824
1459.2528,0.059017
1460.1846,0.056547
1461.1164,0.054290
1462.0483,0.052010
1462.9801,0.050308
1463.9119,0.049463
1464.8438,0.049102
1465.7756,0.049215
1466.7074,0.048643
1467.6393,0.047443
1468.5711,0.046500
1469.5029,0.045556
1470.4348,0.044706
1471.3666,0.044132
1472.2984,0.044089
1473.2303,0.045414
1474.1621,0.046919
1475.0939,0.046805
1476.0258,0.046015
1476.9576,0.046178
1477.8895,0.046790
1478.8213,0.046107
1479.7531,0.045670
1480.6850,0.045940
1481.6168,0.046165
1482.5486,0.046460
1483.4805,0.046419
1484.4123,0.045969
1485.3441,0.045671
1486.2760,0.045405
1487.2078,0.044854
1488.1396,0.044743
1489.0715,0.045184
1490.0033,0.045197
1490.9351,0.045432
1491.8670,0.045174
1492.7988,0.043851
1493.7306,0.042482
1494.6625,0.041699
1495.5943,0.041507
1496.5261,0.041551
1497.4580,0.042353
1498.3898,0.042356
1499.3216,0.041838
1500.2535,0.042269
1501.1853,0.041857
1502.1171,0.041065
1503.0490,0.040688
1503.9808,0.039675
1504.9127,0.038508
1505.8445,0.038017
1506.7763,0.039039
1507.7082,0.043205
1508.6400,0.045119
1509.5718,0.043500
1510.5037,0.041849
1511.4355,0.040875
1512.3673,0.040561
1513.2992,0.040971
1514.2310,0.041222
1515.1628,0.040755
1516.0947,0.040338
1517.0265,0.040064
1517.9583,0.040805
1518.8902,0.041711
1519.8220,0.040929
1520.7538,0.040221
1521.6857,0.041033
1522.6175,0.042693
1523.5493,0.042666
1524.4812,0.041566
1525.4130,0.040617
1526.3448,0.041154
1527.2767,0.042038
1528.2085,0.042078
1529.1403,0.042186
1530.0722,0.041950
1531.0040,0.041433
1531.9359,0.041231
1532.8677,0.041637
1533.7995,0.042398
1534.7314,0.043432
1535.6632,0.043053
1536.5950,0.041622
1537.5269,0.040820
1538.4587,0.040184
1539.3905,0.040029
1540.3224,0.042972
1541.2542,0.046358
1542.1860,0.044687
1543.1179,0.043403
1544.0497,0.044309
1544.9815,0.044974
1545.9134,0.045073
1546.8452,0.045069
1547.7770,0.044382
1548.7089,0.043780
1549.6407,0.043856
1550.5725,0.044743
1551.5044,0.045894
1552.4362,0.045285
1553.3680,0.044193
1554.2999,0.043830
1555.2317,0.044442
1556.1635,0.045341
1557.0954,0.044631
1558.0272,0.044437
1558.9591,0.047427
1559.8909,0.052904
1560.8227,0.053836
1561.7546,0.051273
1562.6864,0.048665
1563.6182,0.047611
1564.5501,0.047673
1565.4819,0.048306
1566.4137,0.049101
1567.3456,0.049167
1568.2774,0.049197
1569.2092,0.049552
1570.1411,0.050887
1571.0729,0.053017
1572.0047,0.052456
1572.9366,0.051148
1573.8684,0.050937
1574.8002,0.051178
1575.7321,0.051844
1576.6639,0.053874
1577.5957,0.057161
1578.5276,0.057441
1579.4594,0.056212
1580.3912,0.056014
1581.3231,0.056710
1582.2549,0.057340
1583.1867,0.058166
1584.1186,0.058951
1585.0504,0.059437
1585.9822,0.059991
1586.9141,0.060700
1587.8459,0.061433
1588.7778,0.062133
1589.7096,0.062836
1590.6414,0.063745
1591.5733,0.064928
1592.5051,0.065968
1593.4369,0.066893
1594.3688,0.067788
1595.3006,0.069097
1596.2324,0.070667
1597.1643,0.071723
