Wavenumber,Intensity
650.4205,0.366414
651.3523,0.370205
652.2841,0.365095
653.2160,0.374435
654.1478,0.375661
655.0796,0.368760
656.0115,0.366571
656.9433,0.368497
657.8751,0.367909
658.8070,0.358310
659.7388,0.350133
660.6706,0.352123
661.6025,0.350548
662.5343,0.354124
663.4661,0.360541
664.3980,0.361303
665.3298,0.354105
666.2616,0.344088
667.1935,0.338002
668.1253,0.342409
669.0571,0.345593
669.9890,0.344399
670.9208,0.346322
671.8526,0.343774
672.7845,0.339022
673.7163,0.342185
674.6481,0.343287
675.5800,0.339799
676.5118,0.336261
677.4437,0.335974
678.3755,0.339286
679.3073,0.338434
680.2392,0.334506
681.1710,0.336967
682.1028,0.339993
683.0347,0.339121
683.9665,0.333411
684.8983,0.329492
685.8302,0.325407
686.7620,0.329892
687.6938,0.332462
688.6257,0.326614
689.5575,0.322292
690.4893,0.322933
691.4212,0.323549
692.3530,0.324372
693.2848,0.323257
694.2167,0.317711
695.1485,0.314023
696.0803,0.316057
697.0122,0.317262
697.9440,0.313680
698.8758,0.309595
699.8077,0.308656
700.7395,0.307283
701.6713,0.308843
702.6032,0.307913
703.5350,0.305737
704.4669,0.303006
705.3987,0.301624
706.3305,0.304992
707.2624,0.306001
708.1942,0.303139
709.1260,0.297975
710.0579,0.291928
710.9897,0.292326
711.9215,0.293936
712.8534,0.294570
713.7852,0.293519
714.7170,0.291932
715.6489,0.288361
716.5807,0.287724
717.5125,0.287959
718.4444,0.290159
719.3762,0.289435
720.3080,0.284639
721.2399,0.282528
722.1717,0.282874
723.1035,0.280859
724.0354,0.280618
724.9672,0.279126
725.8990,0.273792
726.8309,0.270072
727.7627,0.270599
728.6945,0.272892
729.6264,0.273537
730.5582,0.269355
731.4901,0.267522
732.4219,0.268138
733.3537,0.267569
734.2856,0.264276
735.2174,0.261538
736.1492,0.260776
737.0811,0.260350
738.0129,0.258401
738.9447,0.256118
739.8766,0.255238
740.8084,0.256416
741.7402,0.257715
742.6721,0.256812
743.6039,0.253899
744.5357,0.253527
745.4676,0.252532
746.3994,0.248604
747.3312,0.245792
748.2631,0.244529
749.1949,0.243370
750.1267,0.241925
751.0586,0.239627
751.9904,0.239995
752.9222,0.239529
753.8541,0.236838
754.7859,0.235781
755.7177,0.235359
756.6496,0.232623
757.5814,0.232440
758.5132,0.233355
759.4451,0.231773
760.3769,0.230506
761.3088,0.231732
762.2406,0.230083
763.1724,0.225920
764.1043,0.223375
765.0361,0.223012
765.9679,0.221504
766.8998,0.219769
767.8316,0.219244
768.7634,0.219454
769.6953,0.218321
770.6271,0.217194
771.5589,0.215580
772.4908,0.214727
773.4226,0.215163
774.3544,0.213804
775.2863,0.211373
776.2181,0.209715
777.1499,0.209324
778.0818,0.207989
779.0136,0.205275
779.9454,0.204177
780.8773,0.204819
781.8091,0.203152
782.7409,0.200085
783.6728,0.199705
784.6046,0.199246
785.5364,0.197292
786.4683,0.195721
787.4001,0.194994
788.3320,0.194285
789.2638,0.193749
790.1956,0.192183
791.1275,0.190965
792.0593,0.189202
792.9911,0.188392
793.9230,0.186912
794.8548,0.184290
795.7866,0.184262
796.7185,0.185051
797.6503,0.182853
798.5821,0.181860
799.5140,0.181409
800.4458,0.180595
801.3776,0.179207
802.3095,0.178167
803.2413,0.176948
804.1731,0.176427
805.1050,0.175509
806.0368,0.173869
806.9686,0.172352
807.9005,0.170883
808.8323,0.169261
809.7641,0.168412
810.6960,0.167793
811.6278,0.166453
812.5596,0.164283
813.4915,0.162261
814.4233,0.161682
815.3552,0.160336
816.2870,0.157597
817.2188,0.156891
818.1507,0.156767
819.0825,0.155724
820.0143,0.155119
820.9462,0.153889
821.8780,0.152535
822.8098,0.151515
823.7417,0.149923
824.6735,0.147895
825.6053,0.146346
826.5372,0.145586
827.4690,0.144738
828.4008,0.144463
829.3327,0.142940
830.2645,0.142349
831.1963,0.142233
832.1282,0.141450
833.0600,0.140108
833.9918,0.138596
834.9237,0.137536
835.8555,0.136602
836.7873,0.135514
837.7192,0.134674
838.6510,0.133604
839.5828,0.132711
840.5147,0.131685
841.4465,0.131219
842.3784,0.131005
843.3102,0.130016
844.2420,0.128533
845.1739,0.127806
846.1057,0.127388
847.0375,0.126463
847.9694,0.124633
848.9012,0.123081
849.8330,0.123176
850.7649,0.123096
851.6967,0.121737
852.6285,0.121092
853.5604,0.120744
854.4922,0.120130
855.4240,0.119846
856.3559,0.119358
857.2877,0.118311
858.2195,0.118227
859.1514,0.118020
860.0832,0.117525
861.0150,0.117093
861.9469,0.117351
862.8787,0.118577
863.8105,0.119080
864.7424,0.118977
865.6742,0.119618
866.6060,0.120822
867.5379,0.122961
868.4697,0.125301
869.4016,0.127915
870.3334,0.130574
871.2652,0.133848
872.1971,0.138864
873.1289,0.144462
874.0607,0.149775
874.9926,0.154987
875.9244,0.160303
876.8562,0.164548
877.7881,0.166102
878.7199,0.165729
879.6517,0.162769
880.5836,0.157277
881.5154,0.150077
882.4472,0.142142
883.3791,0.134167
884.3109,0.126994
885.2427,0.120330
886.1746,0.114214
887.1064,0.108746
888.0382,0.104063
888.9701,0.100035
889.9019,0.096532
890.8337,0.093751
891.7656,0.091524
892.6974,0.089287
893.6292,0.087607
894.5611,0.086369
895.4929,0.085120
896.4247,0.084168
897.3566,0.083006
898.2884,0.081444
899.2203,0.080117
900.1521,0.079325
901.0839,0.078813
902.0158,0.078022
902.9476,0.076891
903.8794,0.076321
904.8113,0.075945
905.7431,0.074783
906.6749,0.074312
907.6068,0.074116
908.5386,0.073611
909.4704,0.073081
910.4023,0.072411
911.3341,0.071722
912.2659,0.071355
913.1978,0.070956
914.1296,0.070190
915.0614,0.069776
915.9933,0.069445
916.9251,0.068749
917.8569,0.067919
918.7888,0.067502
919.7206,0.067769
920.6524,0.067466
921.5843,0.066914
922.5161,0.066616
923.4479,0.066140
924.3798,0.065339
925.3116,0.064908
926.2435,0.064397
927.1753,0.064117
928.1071,0.063987
929.0390,0.063730
929.9708,0.063406
930.9026,0.062829
931.8345,0.062488
932.7663,0.062371
933.6981,0.061658
934.6300,0.060907
935.5618,0.060824
936.4936,0.060738
937.4255,0.060291
938.3573,0.060086
939.2891,0.059747
940.2210,0.059559
941.1528,0.059543
942.0846,0.059434
943.0165,0.058944
943.9483,0.058645
944.8801,0.058534
945.8120,0.058219
946.7438,0.057872
947.6756,0.057509
948.6075,0.057666
949.5393,0.057530
950.4711,0.057152
951.4030,0.056968
952.3348,0.056502
953.2667,0.056000
954.1985,0.056127
955.1303,0.056130
956.0622,0.055793
956.9940,0.055719
957.9258,0.055751
958.8577,0.055638
959.7895,0.055534
960.7213,0.055109
961.6532,0.054635
962.5850,0.054750
963.5168,0.054673
964.4487,0.054391
965.3805,0.054256
966.3123,0.054203
967.2442,0.053839
968.1760,0.053711
969.1078,0.053644
970.0397,0.053539
970.9715,0.053662
971.9033,0.053588
972.8352,0.053454
973.7670,0.053162
974.6988,0.053351
975.6307,0.053728
976.5625,0.053833
977.4943,0.053598
978.4262,0.052976
979.3580,0.052916
980.2899,0.053206
981.2217,0.053026
982.1535,0.052872
983.0854,0.053078
984.0172,0.053276
984.9490,0.053571
985.8809,0.053481
986.8127,0.053280
987.7445,0.053266
988.6764,0.053235
989.6082,0.053058
990.5400,0.053337
991.4719,0.053505
992.4037,0.053517
993.3355,0.053649
994.2674,0.053863
995.1992,0.053971
996.1310,0.054038
997.0629,0.054247
997.9947,0.054477
998.9265,0.054674
999.8584,0.055127
1000.7902,0.055259
1001.7220,0.055205
1002.6539,0.055560
1003.5857,0.056207
1004.5175,0.056809
1005.4494,0.056785
1006.3812,0.057103
1007.3131,0.057785
1008.2449,0.058325
1009.1767,0.058595
1010.1086,0.059032
1011.0404,0.059822
1011.9722,0.060639
1012.9041,0.061348
1013.8359,0.062062
1014.7677,0.063028
1015.6996,0.063923
1016.6314,0.064796
1017.5632,0.066021
1018.4951,0.067514
1019.4269,0.068918
1020.3587,0.070506
1021.2906,0.072491
1022.2224,0.074788
1023.1542,0.077073
1024.0861,0.079283
1025.0179,0.081883
1025.9497,0.085007
1026.8816,0.088328
1027.8134,0.092240
1028.7452,0.096712
1029.6771,0.101391
1030.6089,0.106743
1031.5407,0.113335
1032.4726,0.121130
1033.4044,0.129786
1034.3362,0.139839
1035.2681,0.151196
1036.1999,0.163642
1037.1318,0.177457
1038.0636,0.192645
1038.9954,0.208652
1039.9273,0.224407
1040.8591,0.239077
1041.7909,0.252125
1042.7228,0.261660
1043.6546,0.267262
1044.5864,0.268398
1045.5183,0.263901
1046.4501,0.255188
1047.3819,0.243242
1048.3138,0.228628
1049.2456,0.212642
1050.1774,0.195741
1051.1093,0.178969
1052.0411,0.163131
1052.9729,0.148322
1053.9048,0.134525
1054.8366,0.122069
1055.7684,0.111262
1056.7003,0.102441
1057.6321,0.095139
1058.5639,0.089204
1059.4958,0.084469
1060.4276,0.080547
1061.3594,0.077518
1062.2913,0.075395
1063.2231,0.073969
1064.1550,0.073008
1065.0868,0.072172
1066.0186,0.071770
1066.9505,0.072077
1067.8823,0.072685
1068.8141,0.073579
1069.7460,0.074606
1070.6778,0.075708
1071.6096,0.077244
1072.5415,0.079211
1073.4733,0.081504
1074.4051,0.084146
1075.3370,0.086938
1076.2688,0.089839
1077.2006,0.092639
1078.1325,0.095497
1079.0643,0.098987
1079.9961,0.102481
1080.9280,0.105671
1081.8598,0.108602
1082.7916,0.110786
1083.7235,0.112639
1084.6553,0.114091
1085.5871,0.114422
1086.5190,0.113942
1087.4508,0.112263
1088.3826,0.109948
1089.3145,0.107051
1090.2463,0.103422
1091.1782,0.099150
1092.1100,0.094280
1093.0418,0.089389
1093.9737,0.084595
1094.9055,0.079999
1095.8373,0.075734
1096.7692,0.071919
1097.7010,0.068385
1098.6328,0.064961
1099.5647,0.061922
1100.4965,0.059536
1101.4283,0.057595
1102.3602,0.055893
1103.2920,0.054076
1104.2238,0.052428
1105.1557,0.051291
1106.0875,0.050591
1107.0193,0.049545
1107.9512,0.048283
1108.8830,0.047485
1109.8148,0.046986
1110.7467,0.046764
1111.6785,0.046357
1112.6103,0.045977
1113.5422,0.045768
1114.4740,0.045450
1115.4058,0.044968
1116.3377,0.044731
1117.2695,0.044713
1118.2014,0.044768
1119.1332,0.044805
1120.0650,0.044501
1120.9969,0.044280
1121.9287,0.044484
1122.8605,0.044528
1123.7924,0.044419
1124.7242,0.044272
1125.6560,0.044264
1126.5879,0.044133
1127.5197,0.043978
1128.4515,0.043876
1129.3834,0.043934
1130.3152,0.043857
1131.2470,0.043824
1132.1789,0.043713
1133.1107,0.043544
1134.0425,0.043268
1134.9744,0.042966
1135.9062,0.042830
1136.8380,0.042768
1137.7699,0.042539
1138.7017,0.042540
1139.6335,0.042380
1140.5654,0.042231
1141.4972,0.042228
1142.4290,0.042150
1143.3609,0.041962
1144.2927,0.041780
1145.2246,0.041844
1146.1564,0.041931
1147.0882,0.041610
1148.0201,0.041475
1148.9519,0.041489
1149.8837,0.041589
1150.8156,0.041822
1151.7474,0.041858
1152.6792,0.041647
1153.6111,0.041524
1154.5429,0.041421
1155.4747,0.041460
1156.4066,0.041701
1157.3384,0.041357
1158.2702,0.040848
1159.2021,0.040999
1160.1339,0.040951
1161.0657,0.040633
1161.9976,0.040367
1162.9294,0.040251
1163.8612,0.040102
1164.7931,0.039807
1165.7249,0.039699
1166.6567,0.039436
1167.5886,0.039375
1168.5204,0.039543
1169.4522,0.039444
1170.3841,0.039108
1171.3159,0.038792
1172.2477,0.038764
1173.1796,0.038792
1174.1114,0.038836
1175.0433,0.038710
1175.9751,0.038428
1176.9069,0.038541
1177.8388,0.038760
1178.7706,0.038450
1179.7024,0.038371
1180.6343,0.038611
1181.5661,0.038672
1182.4979,0.038673
1183.4298,0.038634
1184.3616,0.038474
1185.2934,0.038453
1186.2253,0.038335
1187.1571,0.038296
1188.0889,0.038443
1189.0208,0.038545
1189.9526,0.038748
1190.8844,0.038862
1191.8163,0.038813
1192.7481,0.038813
1193.6799,0.038753
1194.6118,0.038526
1195.5436,0.038461
1196.4754,0.038707
1197.4073,0.038795
1198.3391,0.038445
1199.2709,0.038504
1200.2028,0.038915
1201.1346,0.038928
1202.0665,0.038796
1202.9983,0.038968
1203.9301,0.038804
1204.8620,0.038575
1205.7938,0.038512
1206.7256,0.038649
1207.6575,0.038852
1208.5893,0.039116
1209.5211,0.039362
1210.4530,0.039367
1211.3848,0.039356
1212.3166,0.039360
1213.2485,0.039249
1214.1803,0.039236
1215.1121,0.039462
1216.0440,0.039401
1216.9758,0.039289
1217.9076,0.039224
1218.8395,0.039061
1219.7713,0.039349
1220.7031,0.039479
1221.6350,0.039504
1222.5668,0.039806
1223.4986,0.039891
1224.4305,0.039890
1225.3623,0.039953
1226.2941,0.040040
1227.2260,0.040114
1228.1578,0.040236
1229.0897,0.040393
1230.0215,0.040459
1230.9533,0.040406
1231.8852,0.040319
1232.8170,0.040358
1233.7488,0.040296
1234.6807,0.040342
1235.6125,0.040692
1236.5443,0.040894
1237.4762,0.040754
1238.4080,0.040821
1239.3398,0.040935
1240.2717,0.041306
1241.2035,0.041547
1242.1353,0.041409
1243.0672,0.041529
1243.9990,0.041935
1244.9308,0.042100
1245.8627,0.042189
1246.7945,0.042327
1247.7263,0.042348
1248.6582,0.042461
1249.5900,0.043097
1250.5218,0.043636
1251.4537,0.043749
1252.3855,0.043544
1253.3173,0.043501
1254.2492,0.043878
1255.1810,0.044388
1256.1129,0.044666
1257.0447,0.045049
1257.9765,0.045471
1258.9084,0.045745
1259.8402,0.046071
1260.7720,0.046437
1261.7039,0.047104
1262.6357,0.047636
1263.5675,0.048091
1264.4994,0.048705
1265.4312,0.049397
1266.3630,0.049776
1267.2949,0.050109
1268.2267,0.050800
1269.1585,0.051648
1270.0904,0.052292
1271.0222,0.052682
1271.9540,0.053094
1272.8859,0.053495
1273.8177,0.053523
1274.7495,0.053696
1275.6814,0.053855
1276.6132,0.053794
1277.5450,0.053462
1278.4769,0.052727
1279.4087,0.051951
1280.3405,0.051617
1281.2724,0.051393
1282.2042,0.050976
1283.1361,0.050502
1284.0679,0.050116
1284.9997,0.049851
1285.9316,0.049771
1286.8634,0.049404
1287.7952,0.049146
1288.7271,0.049210
1289.6589,0.049348
1290.5907,0.049341
1291.5226,0.049356
1292.4544,0.049521
1293.3862,0.049721
1294.3181,0.049788
1295.2499,0.049911
1296.1817,0.050100
1297.1136,0.050105
1298.0454,0.050311
1298.9772,0.050645
1299.9091,0.050685
1300.8409,0.050882
1301.7727,0.051346
1302.7046,0.051752
1303.6364,0.052149
1304.5682,0.052396
1305.5001,0.052662
1306.4319,0.053022
1307.3637,0.053288
1308.2956,0.053361
1309.2274,0.053669
1310.1592,0.053797
1311.0911,0.053937
1312.0229,0.054435
1312.9548,0.054743
1313.8866,0.055011
1314.8184,0.055329
1315.7503,0.055494
1316.6821,0.055587
1317.6139,0.055995
1318.5458,0.056104
1319.4776,0.056238
1320.4094,0.056528
1321.3413,0.056359
1322.2731,0.056319
1323.2049,0.056367
1324.1368,0.056627
1325.0686,0.056809
1326.0004,0.056648
1326.9323,0.056645
1327.8641,0.056512
1328.7959,0.056320
1329.7278,0.056302
1330.6596,0.056197
1331.5914,0.056015
1332.5233,0.055775
1333.4551,0.055564
1334.3869,0.055109
1335.3188,0.054588
1336.2506,0.054359
1337.1824,0.053990
1338.1143,0.053561
1339.0461,0.053759
1339.9780,0.054139
1340.9098,0.053978
1341.8416,0.053349
1342.7735,0.052646
1343.7053,0.052304
1344.6371,0.052005
1345.5690,0.051584
1346.5008,0.051131
1347.4326,0.050738
1348.3645,0.050472
1349.2963,0.050370
1350.2281,0.049951
1351.1600,0.049439
1352.0918,0.049410
1353.0236,0.049429
1353.9555,0.049199
1354.8873,0.049148
1355.8191,0.049329
1356.7510,0.049210
1357.6828,0.049132
1358.6146,0.049022
1359.5465,0.048763
1360.4783,0.048888
1361.4101,0.049531
1362.3420,0.050304
1363.2738,0.050792
1364.2056,0.051232
1365.1375,0.050549
1366.0693,0.050402
1367.0012,0.051057
1367.9330,0.051779
1368.8648,0.052706
1369.7967,0.053825
1370.7285,0.054230
1371.6603,0.054684
1372.5922,0.056005
1373.5240,0.057776
1374.4558,0.059989
1375.3877,0.061829
1376.3195,0.062605
1377.2513,0.063132
1378.1832,0.063753
1379.1150,0.064583
1380.0468,0.065244
1380.9787,0.065903
1381.9105,0.066341
1382.8423,0.066524
1383.7742,0.066577
1384.7060,0.066675
1385.6378,0.066496
1386.5697,0.066523
1387.5015,0.067351
1388.4333,0.067899
1389.3652,0.066439
1390.2970,0.064854
1391.2288,0.064159
1392.1607,0.063764
1393.0925,0.063156
1394.0244,0.062707
1394.9562,0.062981
1395.8880,0.063690
1396.8199,0.063516
1397.7517,0.062612
1398.6835,0.062784
1399.6154,0.064129
1400.5472,0.064389
1401.4790,0.063404
1402.4109,0.063039
1403.3427,0.063138
1404.2745,0.063490
1405.2064,0.064181
1406.1382,0.065160
1407.0700,0.065109
1408.0019,0.064598
1408.9337,0.064527
1409.8655,0.064769
1410.7974,0.065136
1411.7292,0.065326
1412.6610,0.065473
1413.5929,0.065283
1414.5247,0.064829
1415.4565,0.064641
1416.3884,0.064486
1417.3202,0.064357
1418.2520,0.064546
1419.1839,0.064864
1420.1157,0.066212
1421.0476,0.066048
1421.9794,0.064299
1422.9112,0.063696
1423.8431,0.063604
1424.7749,0.063842
1425.7067,0.062966
1426.6386,0.061876
1427.5704,0.061443
1428.5022,0.061418
1429.4341,0.060954
1430.3659,0.060669
1431.2977,0.060418
1432.2296,0.059118
1433.1614,0.058300
1434.0932,0.057973
1435.0251,0.057292
1435.9569,0.056735
1436.8887,0.057858
1437.8206,0.059355
1438.7524,0.057748
1439.6842,0.056436
1440.6161,0.056208
1441.5479,0.056126
1442.4797,0.055955
1443.4116,0.056301
1444.3434,0.056987
1445.2752,0.057232
1446.2071,0.057776
1447.1389,0.058782
1448.0707,0.059973
1449.0026,0.061384
1449.9344,0.061809
1450.8663,0.061711
1451.7981,0.061773
1452.7299,0.061958
1453.6618,0.061649
1454.5936,0.060755
1455.5254,0.060499
1456.4573,0.060884
1457.3891,0.062714
1458.3209,0.062189
1459.2528,0.059365
1460.1846,0.056657
1461.1164,0.053880
1462.0483,0.051984
1462.9801,0.050162
1463.9119,0.049118
1464.8438,0.049422
1465.7756,0.049603
1466.7074,0.047935
1467.6393,0.046406
1468.5711,0.045605
1469.5029,0.044951
1470.4348,0.044448
1471.3666,0.043864
1472.2984,0.044575
1473.2303,0.046002
1474.1621,0.045752
1475.0939,0.044672
1476.0258,0.043929
1476.9576,0.044558
1477.8895,0.044604
1478.8213,0.044241
1479.7531,0.044618
1480.6850,0.044921
1481.6168,0.045217
1482.5486,0.045392
1483.4805,0.044988
1484.4123,0.044643
1485.3441,0.044229
1486.2760,0.043663
1487.2078,0.043838
1488.1396,0.044427
1489.0715,0.043958
1490.0033,0.043538
1490.9351,0.043488
1491.8670,0.041950
1492.7988,0.040575
1493.7306,0.040363
1494.6625,0.040006
1495.5943,0.039599
1496.5261,0.040165
1497.4580,0.040594
1498.3898,0.039335
1499.3216,0.039368
1500.2535,0.039543
1501.1853,0.038645
1502.1171,0.038351
1503.0490,0.037961
1503.9808,0.037515
1504.9127,0.037798
1505.8445,0.038816
1506.7763,0.040663
1507.7082,0.040747
1508.6400,0.038791
1509.5718,0.038752
1510.5037,0.039024
1511.4355,0.038822
1512.3673,0.038538
1513.2992,0.038435
1514.2310,0.037813
1515.1628,0.037786
1516.0947,0.038359
1517.0265,0.038686
1517.9583,0.038765
1518.8902,0.038089
1519.8220,0.037458
1520.7538,0.038327
1521.6857,0.040004
1522.6175,0.039805
1523.5493,0.038998
1524.4812,0.038322
1525.4130,0.038171
1526.3448,0.038837
1527.2767,0.038819
1528.2085,0.039038
1529.1403,0.038793
1530.0722,0.038223
1531.0040,0.038252
1531.9359,0.038745
1532.8677,0.038950
1533.7995,0.039294
1534.7314,0.040056
1535.6632,0.038906
1536.5950,0.037760
1537.5269,0.037455
1538.4587,0.038028
1539.3905,0.039280
1540.3224,0.041089
1541.2542,0.041247
1542.1860,0.040116
1543.1179,0.040475
1544.0497,0.040360
1544.9815,0.040472
1545.9134,0.041176
1546.8452,0.040979
1547.7770,0.040303
1548.7089,0.040183
1549.6407,0.040764
1550.5725,0.041991
1551.5044,0.042068
1552.4362,0.041063
1553.3680,0.040824
1554.2999,0.041343
1555.2317,0.041839
1556.1635,0.040645
1557.0954,0.040465
1558.0272,0.042450
1558.9591,0.046332
1559.8909,0.048838
1560.8227,0.046801
1561.7546,0.044464
1562.6864,0.043271
1563.6182,0.043232
1564.5501,0.043798
1565.4819,0.044443
1566.4137,0.044925
1567.3456,0.045234
1568.2774,0.045226
1569.2092,0.045563
1570.1411,0.046951
1571.0729,0.047810
1572.0047,0.047136
1572.9366,0.046797
1573.8684,0.046892
1574.8002,0.047369
1575.7321,0.048079
1576.6639,0.050315
1577.5957,0.052506
1578.5276,0.051637
1579.4594,0.051142
1580.3912,0.051427
1581.3231,0.051721
1582.2549,0.052129
1583.1867,0.052971
1584.1186,0.053934
1585.0504,0.054799
1585.9822,0.055494
1586.9141,0.055819
1587.8459,0.056154
1588.7778,0.057002
1589.7096,0.057933
1590.6414,0.058324
1591.5733,0.058632
1592.5051,0.059599
1593.4369,0.061065
1594.3688,0.062146
1595.3006,0.063331
1596.2324,0.064683
1597.1643,0.065423
