Wavenumber,Intensity
650.4205,0.196572
651.3523,0.194400
652.2841,0.198185
653.2160,0.202062
654.1478,0.197515
655.0796,0.199363
656.0115,0.203455
656.9433,0.203226
657.8751,0.204113
658.8070,0.198296
659.7388,0.188623
660.6706,0.200031
661.6025,0.207019
662.5343,0.200666
663.4661,0.199421
664.3980,0.196393
665.3298,0.194321
666.2616,0.188885
667.1935,0.186105
668.1253,0.196150
669.0571,0.207075
669.9890,0.201291
670.9208,0.198292
671.8526,0.196761
672.7845,0.191111
673.7163,0.190682
674.6481,0.196507
675.5800,0.201486
676.5118,0.195357
677.4437,0.187467
678.3755,0.186446
679.3073,0.189808
680.2392,0.190210
681.1710,0.189598
682.1028,0.190066
683.0347,0.190181
683.9665,0.190541
684.8983,0.189907
685.8302,0.187513
686.7620,0.187636
687.6938,0.186589
688.6257,0.186257
689.5575,0.187309
690.4893,0.188416
691.4212,0.188223
692.3530,0.186797
693.2848,0.185494
694.2167,0.184514
695.1485,0.181377
696.0803,0.182657
697.0122,0.185792
697.9440,0.186637
698.8758,0.185955
699.8077,0.186053
700.7395,0.185343
701.6713,0.185050
702.6032,0.182390
703.5350,0.180249
704.4669,0.177988
705.3987,0.175415
706.3305,0.175007
707.2624,0.177614
708.1942,0.178477
709.1260,0.178366
710.0579,0.177810
710.9897,0.175943
711.9215,0.173679
712.8534,0.173393
713.7852,0.175562
714.7170,0.174412
715.6489,0.173132
716.5807,0.175308
717.5125,0.174262
718.4444,0.170796
719.3762,0.171460
720.3080,0.174752
721.2399,0.173581
722.1717,0.169803
723.1035,0.168083
724.0354,0.168129
724.9672,0.168169
725.8990,0.168831
726.8309,0.167693
727.7627,0.165939
728.6945,0.165261
729.6264,0.164392
730.5582,0.165120
731.4901,0.165805
732.4219,0.164688
733.3537,0.164700
734.2856,0.163628
735.2174,0.161999
736.1492,0.160319
737.0811,0.158765
738.0129,0.158966
738.9447,0.160379
739.8766,0.159934
740.8084,0.158775
741.7402,0.157225
742.6721,0.156902
743.6039,0.157722
744.5357,0.157899
745.4676,0.157259
746.3994,0.157228
747.3312,0.155900
748.2631,0.152987
749.1949,0.151673
750.1267,0.152037
751.0586,0.152120
751.9904,0.152439
752.9222,0.151496
753.8541,0.149627
754.7859,0.149042
755.7177,0.148588
756.6496,0.148801
757.5814,0.149114
758.5132,0.146327
759.4451,0.144382
760.3769,0.145630
761.3088,0.146470
762.2406,0.145187
763.1724,0.144629
764.1043,0.144405
765.0361,0.144268
765.9679,0.143945
766.8998,0.142341
767.8316,0.141437
768.7634,0.141485
769.6953,0.140517
770.6271,0.138872
771.5589,0.137586
772.4908,0.137118
773.4226,0.136556
774.3544,0.135333
775.2863,0.134592
776.2181,0.134975
777.1499,0.135351
778.0818,0.135629
779.0136,0.135531
779.9454,0.134161
780.8773,0.131753
781.8091,0.130421
782.7409,0.129935
783.6728,0.129999
784.6046,0.130579
785.5364,0.130499
786.4683,0.129569
787.4001,0.128819
788.3320,0.127222
789.2638,0.126181
790.1956,0.126405
791.1275,0.125844
792.0593,0.124943
792.9911,0.124756
793.9230,0.123346
794.8548,0.121805
795.7866,0.120694
796.7185,0.119807
797.6503,0.119636
798.5821,0.119264
799.5140,0.118755
800.4458,0.118310
801.3776,0.117794
802.3095,0.117630
803.2413,0.117539
804.1731,0.116770
805.1050,0.115799
806.0368,0.114567
806.9686,0.113524
807.9005,0.113891
808.8323,0.113701
809.7641,0.112545
810.6960,0.112630
811.6278,0.112262
812.5596,0.110933
813.4915,0.109972
814.4233,0.108788
815.3552,0.108104
816.2870,0.107548
817.2188,0.106245
818.1507,0.105407
819.0825,0.105734
820.0143,0.105590
820.9462,0.103880
821.8780,0.102299
822.8098,0.102237
823.7417,0.101478
824.6735,0.100533
825.6053,0.101422
826.5372,0.102119
827.4690,0.100643
828.4008,0.099159
829.3327,0.098851
830.2645,0.097514
831.1963,0.096093
832.1282,0.096457
833.0600,0.096104
833.9918,0.095236
834.9237,0.095066
835.8555,0.094503
836.7873,0.093506
837.7192,0.092948
838.6510,0.092821
839.5828,0.092455
840.5147,0.091464
841.4465,0.090233
842.3784,0.089217
843.3102,0.088815
844.2420,0.088310
845.1739,0.087321
846.1057,0.086442
847.0375,0.086172
847.9694,0.085976
848.9012,0.085899
849.8330,0.085801
850.7649,0.084595
851.6967,0.083719
852.6285,0.083437
853.5604,0.082516
854.4922,0.081588
855.4240,0.080720
856.3559,0.080150
857.2877,0.079922
858.2195,0.079520
859.1514,0.079006
860.0832,0.078925
861.0150,0.078500
861.9469,0.077334
862.8787,0.076528
863.8105,0.076394
864.7424,0.076258
865.6742,0.075508
866.6060,0.074257
867.5379,0.073483
868.4697,0.073453
869.4016,0.073544
870.3334,0.073086
871.2652,0.072340
872.1971,0.071769
873.1289,0.071385
874.0607,0.071076
874.9926,0.071068
875.9244,0.071067
876.8562,0.071442
877.7881,0.071485
878.7199,0.070799
879.6517,0.070140
880.5836,0.069223
881.5154,0.068138
882.4472,0.067125
883.3791,0.066093
884.3109,0.065393
885.2427,0.064475
886.1746,0.063920
887.1064,0.063667
888.0382,0.062913
888.9701,0.062247
889.9019,0.061559
890.8337,0.060835
891.7656,0.060264
892.6974,0.059580
893.6292,0.058860
894.5611,0.058682
895.4929,0.058640
896.4247,0.057973
897.3566,0.057438
898.2884,0.057078
899.2203,0.056630
900.1521,0.056249
901.0839,0.055855
902.0158,0.055404
902.9476,0.054744
903.8794,0.054318
904.8113,0.053837
905.7431,0.053795
906.6749,0.053841
907.6068,0.053319
908.5386,0.052516
909.4704,0.051904
910.4023,0.051682
911.3341,0.051165
912.2659,0.050695
913.1978,0.050296
914.1296,0.049774
915.0614,0.049751
915.9933,0.049637
916.9251,0.049133
917.8569,0.048383
918.7888,0.048139
919.7206,0.048101
920.6524,0.047972
921.5843,0.047515
922.5161,0.046841
923.4479,0.046363
924.3798,0.046365
925.3116,0.046149
926.2435,0.046040
927.1753,0.045646
928.1071,0.044916
929.0390,0.044944
929.9708,0.044774
930.9026,0.044014
931.8345,0.043758
932.7663,0.043891
933.6981,0.043644
934.6300,0.043025
935.5618,0.042884
936.4936,0.042762
937.4255,0.042339
938.3573,0.041896
939.2891,0.041485
940.2210,0.041145
941.1528,0.041149
942.0846,0.040957
943.0165,0.040651
943.9483,0.040583
944.8801,0.040519
945.8120,0.040597
946.7438,0.040371
947.6756,0.040116
948.6075,0.039868
949.5393,0.039530
950.4711,0.039190
951.4030,0.038828
952.3348,0.038758
953.2667,0.038656
954.1985,0.038415
955.1303,0.038145
956.0622,0.037593
956.9940,0.037041
957.9258,0.036926
958.8577,0.037065
959.7895,0.037191
960.7213,0.037017
961.6532,0.036869
962.5850,0.036918
963.5168,0.036407
964.4487,0.036093
965.3805,0.036012
966.3123,0.035820
967.2442,0.035959
968.1760,0.036236
969.1078,0.035969
970.0397,0.035582
970.9715,0.035293
971.9033,0.035155
972.8352,0.035026
973.7670,0.034982
974.6988,0.035025
975.6307,0.034865
976.5625,0.034705
977.4943,0.034578
978.4262,0.034131
979.3580,0.033937
980.2899,0.033960
981.2217,0.033789
982.1535,0.033685
983.0854,0.033722
984.0172,0.033651
984.9490,0.033636
985.8809,0.033552
986.8127,0.033363
987.7445,0.033424
988.6764,0.033501
989.6082,0.033328
990.5400,0.032934
991.4719,0.032630
992.4037,0.032741
993.3355,0.032818
994.2674,0.032725
995.1992,0.032608
996.1310,0.032421
997.0629,0.032325
997.9947,0.032304
998.9265,0.032149
999.8584,0.032123
1000.7902,0.032202
1001.7220,0.032214
1002.6539,0.032120
1003.5857,0.032110
1004.5175,0.031984
1005.4494,0.031718
1006.3812,0.031731
1007.3131,0.031542
1008.2449,0.031354
1009.1767,0.031437
1010.1086,0.031680
1011.0404,0.031664
1011.9722,0.031749
1012.9041,0.031893
1013.8359,0.031795
1014.7677,0.031799
1015.6996,0.031733
1016.6314,0.031607
1017.5632,0.031655
1018.4951,0.031646
1019.4269,0.031651
1020.3587,0.031748
1021.2906,0.031642
1022.2224,0.031525
1023.1542,0.031668
1024.0861,0.031819
1025.0179,0.031910
1025.9497,0.031916
1026.8816,0.031833
1027.8134,0.031946
1028.7452,0.031970
1029.6771,0.032277
1030.6089,0.032878
1031.5407,0.032877
1032.4726,0.032909
1033.4044,0.033355
1034.3362,0.033581
1035.2681,0.033957
1036.1999,0.034595
1037.1318,0.035102
1038.0636,0.035528
1038.9954,0.036220
1039.9273,0.037084
1040.8591,0.037895
1041.7909,0.038847
1042.7228,0.039635
1043.6546,0.040361
1044.5864,0.040903
1045.5183,0.041179
1046.4501,0.041147
1047.3819,0.040927
1048.3138,0.040305
1049.2456,0.039213
1050.1774,0.038241
1051.1093,0.036986
1052.0411,0.035840
1052.9729,0.035101
1053.9048,0.034108
1054.8366,0.033350
1055.7684,0.032819
1056.7003,0.032327
1057.6321,0.031995
1058.5639,0.031856
1059.4958,0.031655
1060.4276,0.031380
1061.3594,0.030921
1062.2913,0.030681
1063.2231,0.030699
1064.1550,0.030650
1065.0868,0.030608
1066.0186,0.030506
1066.9505,0.030393
1067.8823,0.030340
1068.8141,0.030603
1069.7460,0.030779
1070.6778,0.030772
1071.6096,0.030810
1072.5415,0.030738
1073.4733,0.030545
1074.4051,0.030562
1075.3370,0.030833
1076.2688,0.030952
1077.2006,0.031071
1078.1325,0.031302
1079.0643,0.031389
1079.9961,0.031576
1080.9280,0.031819
1081.8598,0.032025
1082.7916,0.032202
1083.7235,0.032326
1084.6553,0.032418
1085.5871,0.032393
1086.5190,0.032366
1087.4508,0.032500
1088.3826,0.032479
1089.3145,0.032168
1090.2463,0.031882
1091.1782,0.031859
1092.1100,0.031541
1093.0418,0.031262
1093.9737,0.031128
1094.9055,0.030771
1095.8373,0.030393
1096.7692,0.030115
1097.7010,0.030163
1098.6328,0.030235
1099.5647,0.029860
1100.4965,0.029647
1101.4283,0.029723
1102.3602,0.029648
1103.2920,0.029559
1104.2238,0.029184
1105.1557,0.029104
1106.0875,0.029420
1107.0193,0.029390
1107.9512,0.029203
1108.8830,0.029237
1109.8148,0.029342
1110.7467,0.029282
1111.6785,0.028855
1112.6103,0.028785
1113.5422,0.029052
1114.4740,0.029175
1115.4058,0.028936
1116.3377,0.028949
1117.2695,0.029017
1118.2014,0.028853
1119.1332,0.028807
1120.0650,0.028679
1120.9969,0.028774
1121.9287,0.028980
1122.8605,0.029022
1123.7924,0.028805
1124.7242,0.028631
1125.6560,0.028711
1126.5879,0.028654
1127.5197,0.028676
1128.4515,0.028653
1129.3834,0.028641
1130.3152,0.028674
1131.2470,0.028542
1132.1789,0.028553
1133.1107,0.028490
1134.0425,0.028552
1134.9744,0.028628
1135.9062,0.028506
1136.8380,0.028360
1137.7699,0.028455
1138.7017,0.028434
1139.6335,0.028112
1140.5654,0.028159
1141.4972,0.028312
1142.4290,0.028222
1143.3609,0.028184
1144.2927,0.028175
1145.2246,0.027981
1146.1564,0.027753
1147.0882,0.027695
1148.0201,0.027705
1148.9519,0.027885
1149.8837,0.027906
1150.8156,0.027698
1151.7474,0.027743
1152.6792,0.027861
1153.6111,0.027917
1154.5429,0.027974
1155.4747,0.027935
1156.4066,0.027884
1157.3384,0.027827
1158.2702,0.027730
1159.2021,0.027651
1160.1339,0.027611
1161.0657,0.027607
1161.9976,0.027707
1162.9294,0.027827
1163.8612,0.027822
1164.7931,0.027671
1165.7249,0.027624
1166.6567,0.027740
1167.5886,0.027875
1168.5204,0.027812
1169.4522,0.027973
1170.3841,0.028072
1171.3159,0.027968
1172.2477,0.027713
1173.1796,0.027746
1174.1114,0.027990
1175.0433,0.028056
1175.9751,0.028009
1176.9069,0.027908
1177.8388,0.027970
1178.7706,0.027985
1179.7024,0.027904
1180.6343,0.027787
1181.5661,0.027813
1182.4979,0.027780
1183.4298,0.027802
1184.3616,0.027908
1185.2934,0.027934
1186.2253,0.027875
1187.1571,0.027929
1188.0889,0.028015
1189.0208,0.028051
1189.9526,0.028148
1190.8844,0.028080
1191.8163,0.027938
1192.7481,0.028050
1193.6799,0.028279
1194.6118,0.028369
1195.5436,0.028331
1196.4754,0.028242
1197.4073,0.028249
1198.3391,0.028206
1199.2709,0.028204
1200.2028,0.028195
1201.1346,0.028309
1202.0665,0.028435
1202.9983,0.028365
1203.9301,0.028333
1204.8620,0.028262
1205.7938,0.028244
1206.7256,0.028423
1207.6575,0.028524
1208.5893,0.028545
1209.5211,0.028442
1210.4530,0.028422
1211.3848,0.028502
1212.3166,0.028510
1213.2485,0.028313
1214.1803,0.028274
1215.1121,0.028474
1216.0440,0.028626
1216.9758,0.028709
1217.9076,0.028636
1218.8395,0.028561
1219.7713,0.028684
1220.7031,0.028768
1221.6350,0.028721
1222.5668,0.028723
1223.4986,0.028697
1224.4305,0.028739
1225.3623,0.028937
1226.2941,0.028867
1227.2260,0.028794
1228.1578,0.028945
1229.0897,0.028921
1230.0215,0.029003
1230.9533,0.029244
1231.8852,0.029234
1232.8170,0.029254
1233.7488,0.029279
1234.6807,0.029163
1235.6125,0.029251
1236.5443,0.029250
1237.4762,0.029049
1238.4080,0.029013
1239.3398,0.029138
1240.2717,0.029271
1241.2035,0.029383
1242.1353,0.029436
1243.0672,0.029421
1243.9990,0.029354
1244.9308,0.029300
1245.8627,0.029320
1246.7945,0.029317
1247.7263,0.029432
1248.6582,0.029479
1249.5900,0.029416
1250.5218,0.029465
1251.4537,0.029605
1252.3855,0.029691
1253.3173,0.029724
1254.2492,0.029549
1255.1810,0.029559
1256.1129,0.029670
1257.0447,0.029694
1257.9765,0.029744
1258.9084,0.029875
1259.8402,0.029860
1260.7720,0.030051
1261.7039,0.030343
1262.6357,0.030319
1263.5675,0.030261
1264.4994,0.030329
1265.4312,0.030379
1266.3630,0.030344
1267.2949,0.030339
1268.2267,0.030459
1269.1585,0.030519
1270.0904,0.030419
1271.0222,0.030539
1271.9540,0.030858
1272.8859,0.030931
1273.8177,0.030750
1274.7495,0.030665
1275.6814,0.030776
1276.6132,0.030805
1277.5450,0.030745
1278.4769,0.030895
1279.4087,0.030885
1280.3405,0.030415
1281.2724,0.030151
1282.2042,0.030539
1283.1361,0.030758
1284.0679,0.030580
1284.9997,0.030381
1285.9316,0.030267
1286.8634,0.030242
1287.7952,0.030311
1288.7271,0.030421
1289.6589,0.030466
1290.5907,0.030348
1291.5226,0.030137
1292.4544,0.029966
1293.3862,0.029855
1294.3181,0.030076
1295.2499,0.030228
1296.1817,0.030140
1297.1136,0.030294
1298.0454,0.030186
1298.9772,0.030033
1299.9091,0.030060
1300.8409,0.030160
1301.7727,0.030382
1302.7046,0.030304
1303.6364,0.030167
1304.5682,0.030142
1305.5001,0.030384
1306.4319,0.030608
1307.3637,0.030434
1308.2956,0.030358
1309.2274,0.030424
1310.1592,0.030468
1311.0911,0.030499
1312.0229,0.030344
1312.9548,0.030432
1313.8866,0.030772
1314.8184,0.030824
1315.7503,0.030675
1316.6821,0.030642
1317.6139,0.030670
1318.5458,0.030769
1319.4776,0.031204
1320.4094,0.031176
1321.3413,0.030738
1322.2731,0.030498
1323.2049,0.030503
1324.1368,0.030831
1325.0686,0.031160
1326.0004,0.031070
1326.9323,0.030755
1327.8641,0.030633
1328.7959,0.030614
1329.7278,0.030867
1330.6596,0.030966
1331.5914,0.030741
1332.5233,0.030708
1333.4551,0.030749
1334.3869,0.030459
1335.3188,0.030434
1336.2506,0.030608
1337.1824,0.030959
1338.1143,0.031111
1339.0461,0.031620
1339.9780,0.032029
1340.9098,0.031833
1341.8416,0.031166
1342.7735,0.030685
1343.7053,0.030517
1344.6371,0.030494
1345.5690,0.030623
1346.5008,0.030779
1347.4326,0.030855
1348.3645,0.030713
1349.2963,0.030557
1350.2281,0.030592
1351.1600,0.030584
1352.0918,0.030582
1353.0236,0.030632
1353.9555,0.030448
1354.8873,0.030318
1355.8191,0.030615
1356.7510,0.030729
1357.6828,0.030457
1358.6146,0.030254
1359.5465,0.030499
1360.4783,0.030701
1361.4101,0.030930
1362.3420,0.031038
1363.2738,0.031805
1364.2056,0.031772
1365.1375,0.030697
1366.0693,0.030369
1367.0012,0.030510
1367.9330,0.030741
1368.8648,0.031113
1369.7967,0.031442
1370.7285,0.031021
1371.6603,0.030731
1372.5922,0.030896
1373.5240,0.031792
1374.4558,0.032425
1375.3877,0.032497
1376.3195,0.032293
1377.2513,0.031652
1378.1832,0.031559
1379.1150,0.031811
1380.0468,0.031985
1380.9787,0.031995
1381.9105,0.031879
1382.8423,0.031746
1383.7742,0.031574
1384.7060,0.031871
1385.6378,0.031921
1386.5697,0.031952
1387.5015,0.032837
1388.4333,0.033535
1389.3652,0.032799
1390.2970,0.032124
1391.2288,0.031783
1392.1607,0.032057
1393.0925,0.032007
1394.0244,0.031982
1394.9562,0.032732
1395.8880,0.033349
1396.8199,0.033135
1397.7517,0.032827
1398.6835,0.032828
1399.6154,0.033118
1400.5472,0.032634
1401.4790,0.032253
1402.4109,0.032035
1403.3427,0.031955
1404.2745,0.032022
1405.2064,0.032767
1406.1382,0.033345
1407.0700,0.033073
1408.0019,0.032691
1408.9337,0.032394
1409.8655,0.032441
1410.7974,0.032376
1411.7292,0.032734
1412.6610,0.033179
1413.5929,0.033035
1414.5247,0.032401
1415.4565,0.032368
1416.3884,0.032992
1417.3202,0.033557
1418.2520,0.033980
1419.1839,0.034577
1420.1157,0.035038
1421.0476,0.033972
1421.9794,0.033463
1422.9112,0.032896
1423.8431,0.033371
1424.7749,0.034208
1425.7067,0.033895
1426.6386,0.033174
1427.5704,0.032629
1428.5022,0.032529
1429.4341,0.033081
1430.3659,0.033538
1431.2977,0.033221
1432.2296,0.033040
1433.1614,0.032979
1434.0932,0.032854
1435.0251,0.032771
1435.9569,0.032659
1436.8887,0.033696
1437.8206,0.034459
1438.7524,0.033623
1439.6842,0.032682
1440.6161,0.032378
1441.5479,0.032499
1442.4797,0.032372
1443.4116,0.032356
1444.3434,0.032533
1445.2752,0.032481
1446.2071,0.032240
1447.1389,0.032313
1448.0707,0.033394
1449.0026,0.033715
1449.9344,0.033398
1450.8663,0.033217
1451.7981,0.033117
1452.7299,0.033366
1453.6618,0.033263
1454.5936,0.033261
1455.5254,0.033730
1456.4573,0.035479
1457.3891,0.037149
1458.3209,0.036118
1459.2528,0.035067
1460.1846,0.033756
1461.1164,0.032839
1462.0483,0.032420
1462.9801,0.032348
1463.9119,0.032488
1464.8438,0.033379
1465.7756,0.033966
1466.7074,0.033478
1467.6393,0.032562
1468.5711,0.031852
1469.5029,0.031878
1470.4348,0.032023
1471.3666,0.032487
1472.2984,0.033607
1473.2303,0.035181
1474.1621,0.035587
1475.0939,0.033448
1476.0258,0.033037
1476.9576,0.033180
1477.8895,0.033335
1478.8213,0.033066
1479.7531,0.032279
1480.6850,0.032379
1481.6168,0.032920
1482.5486,0.033135
1483.4805,0.033102
1484.4123,0.032789
1485.3441,0.032797
1486.2760,0.033097
1487.2078,0.033435
1488.1396,0.034144
1489.0715,0.034675
1490.0033,0.035210
1490.9351,0.035533
1491.8670,0.034965
1492.7988,0.033553
1493.7306,0.032901
1494.6625,0.032839
1495.5943,0.033361
1496.5261,0.034614
1497.4580,0.035465
1498.3898,0.035148
1499.3216,0.034337
1500.2535,0.034095
1501.1853,0.034276
1502.1171,0.033882
1503.0490,0.033771
1503.9808,0.033738
1504.9127,0.034152
1505.8445,0.035441
1506.7763,0.038435
1507.7082,0.041036
1508.6400,0.039232
1509.5718,0.036737
1510.5037,0.036250
1511.4355,0.036028
1512.3673,0.035814
1513.2992,0.035369
1514.2310,0.035384
1515.1628,0.035515
1516.0947,0.035870
1517.0265,0.037016
1517.9583,0.037527
1518.8902,0.037155
1519.8220,0.035849
1520.7538,0.035754
1521.6857,0.038034
1522.6175,0.039418
1523.5493,0.038310
1524.4812,0.037174
1525.4130,0.037147
1526.3448,0.036981
1527.2767,0.037777
1528.2085,0.037689
1529.1403,0.037568
1530.0722,0.037228
1531.0040,0.036944
1531.9359,0.037421
1532.8677,0.038216
1533.7995,0.038726
1534.7314,0.038961
1535.6632,0.038978
1536.5950,0.037818
1537.5269,0.037408
1538.4587,0.037714
1539.3905,0.039516
1540.3224,0.042810
1541.2542,0.043634
1542.1860,0.042326
1543.1179,0.041310
1544.0497,0.041286
1544.9815,0.040992
1545.9134,0.040851
1546.8452,0.040878
1547.7770,0.040154
1548.7089,0.040019
1549.6407,0.041101
1550.5725,0.042272
1551.5044,0.042637
1552.4362,0.041745
1553.3680,0.041218
1554.2999,0.042082
1555.2317,0.042907
1556.1635,0.043297
1557.0954,0.042382
1558.0272,0.043596
1558.9591,0.047266
1559.8909,0.050240
1560.8227,0.048419
1561.7546,0.045800
1562.6864,0.044614
1563.6182,0.044283
1564.5501,0.044588
1565.4819,0.044895
1566.4137,0.045703
1567.3456,0.045439
1568.2774,0.045434
1569.2092,0.046911
1570.1411,0.048224
1571.0729,0.049155
1572.0047,0.048685
1572.9366,0.047588
1573.8684,0.047681
1574.8002,0.048485
1575.7321,0.049842
1576.6639,0.051395
1577.5957,0.053046
1578.5276,0.052526
1579.4594,0.051735
1580.3912,0.052198
1581.3231,0.052703
1582.2549,0.053095
1583.1867,0.053322
1584.1186,0.054027
1585.0504,0.054724
1585.9822,0.055466
1586.9141,0.056372
1587.8459,0.057323
1588.7778,0.058315
1589.7096,0.059146
1590.6414,0.059643
1591.5733,0.060153
1592.5051,0.061038
1593.4369,0.062464
1594.3688,0.063595
1595.3006,0.064275
1596.2324,0.064816
1597.1643,0.065745
