Wavenumber,Intensity
650.4205,0.393166
651.3523,0.389609
652.2841,0.383195
653.2160,0.384737
654.1478,0.398165
655.0796,0.404023
656.0115,0.390325
656.9433,0.375343
657.8751,0.369918
658.8070,0.373307
659.7388,0.370734
660.6706,0.366956
661.6025,0.367049
662.5343,0.374997
663.4661,0.378418
664.3980,0.374686
665.3298,0.369814
666.2616,0.364826
667.1935,0.353174
668.1253,0.341079
669.0571,0.343143
669.9890,0.352515
670.9208,0.352218
671.8526,0.357776
672.7845,0.364238
673.7163,0.361455
674.6481,0.353719
675.5800,0.354478
676.5118,0.356124
677.4437,0.352674
678.3755,0.356200
679.3073,0.359626
680.2392,0.350319
681.1710,0.350249
682.1028,0.353596
683.0347,0.354489
683.9665,0.356492
684.8983,0.356845
685.8302,0.347652
686.7620,0.339942
687.6938,0.340402
688.6257,0.341559
689.5575,0.339774
690.4893,0.334878
691.4212,0.333208
692.3530,0.337405
693.2848,0.335792
694.2167,0.335511
695.1485,0.332327
696.0803,0.329609
697.0122,0.334051
697.9440,0.331812
698.8758,0.321313
699.8077,0.319724
700.7395,0.322702
701.6713,0.324511
702.6032,0.326796
703.5350,0.325846
704.4669,0.321818
705.3987,0.321233
706.3305,0.316062
707.2624,0.312588
708.1942,0.313468
709.1260,0.311934
710.0579,0.311202
710.9897,0.313901
711.9215,0.312722
712.8534,0.311602
713.7852,0.307678
714.7170,0.304500
715.6489,0.303025
716.5807,0.301363
717.5125,0.300799
718.4444,0.300088
719.3762,0.297092
720.3080,0.297203
721.2399,0.298049
722.1717,0.297566
723.1035,0.293209
724.0354,0.291787
724.9672,0.292072
725.8990,0.288885
726.8309,0.286632
727.7627,0.286220
728.6945,0.284813
729.6264,0.283560
730.5582,0.282247
731.4901,0.281144
732.4219,0.280005
733.3537,0.281304
734.2856,0.279230
735.2174,0.275841
736.1492,0.274845
737.0811,0.274588
738.0129,0.271475
738.9447,0.270497
739.8766,0.270605
740.8084,0.268950
741.7402,0.268086
742.6721,0.267407
743.6039,0.265558
744.5357,0.265550
745.4676,0.263243
746.3994,0.259327
747.3312,0.257326
748.2631,0.257392
749.1949,0.257774
750.1267,0.256786
751.0586,0.253692
751.9904,0.252422
752.9222,0.250683
753.8541,0.248871
754.7859,0.248233
755.7177,0.248253
756.6496,0.246888
757.5814,0.245813
758.5132,0.244983
759.4451,0.242466
760.3769,0.239903
761.3088,0.240340
762.2406,0.240157
763.1724,0.239600
764.1043,0.238142
765.0361,0.234758
765.9679,0.232623
766.8998,0.233808
767.8316,0.233694
768.7634,0.230531
769.6953,0.227556
770.6271,0.226736
771.5589,0.226525
772.4908,0.226367
773.4226,0.224809
774.3544,0.221727
775.2863,0.220133
776.2181,0.220717
777.1499,0.220140
778.0818,0.217799
779.0136,0.215639
779.9454,0.215407
780.8773,0.215621
781.8091,0.214721
782.7409,0.212260
783.6728,0.210226
784.6046,0.209209
785.5364,0.208724
786.4683,0.207618
787.4001,0.206383
788.3320,0.204700
789.2638,0.203339
790.1956,0.202559
791.1275,0.201239
792.0593,0.199272
792.9911,0.199199
793.9230,0.198001
794.8548,0.196427
795.7866,0.195011
796.7185,0.193648
797.6503,0.192485
798.5821,0.191161
799.5140,0.190453
800.4458,0.189844
801.3776,0.188020
802.3095,0.187211
803.2413,0.186467
804.1731,0.184706
805.1050,0.183580
806.0368,0.182113
806.9686,0.180478
807.9005,0.180614
808.8323,0.179374
809.7641,0.177477
810.6960,0.176465
811.6278,0.175817
812.5596,0.173555
813.4915,0.170582
814.4233,0.169595
815.3552,0.168997
816.2870,0.168506
817.2188,0.167170
818.1507,0.164766
819.0825,0.162705
820.0143,0.162016
820.9462,0.161481
821.8780,0.160058
822.8098,0.158025
823.7417,0.157563
824.6735,0.158022
825.6053,0.156069
826.5372,0.153777
827.4690,0.152670
828.4008,0.152077
829.3327,0.151283
830.2645,0.150701
831.1963,0.150309
832.1282,0.148731
833.0600,0.147317
833.9918,0.146203
834.9237,0.144737
835.8555,0.143017
836.7873,0.141652
837.7192,0.141692
838.6510,0.141608
839.5828,0.140439
840.5147,0.139274
841.4465,0.138422
842.3784,0.137442
843.3102,0.136917
844.2420,0.136406
845.1739,0.135552
846.1057,0.133879
847.0375,0.132695
847.9694,0.132096
848.9012,0.131527
849.8330,0.130565
850.7649,0.130176
851.6967,0.129449
852.6285,0.128321
853.5604,0.127238
854.4922,0.125723
855.4240,0.124733
856.3559,0.124957
857.2877,0.125481
858.2195,0.124977
859.1514,0.124080
860.0832,0.123395
861.0150,0.122935
861.9469,0.122755
862.8787,0.122334
863.8105,0.122530
864.7424,0.122921
865.6742,0.123711
866.6060,0.124188
867.5379,0.125330
868.4697,0.127345
869.4016,0.128765
870.3334,0.129968
871.2652,0.131804
872.1971,0.135562
873.1289,0.139899
874.0607,0.143572
874.9926,0.147774
875.9244,0.152205
876.8562,0.154358
877.7881,0.154769
878.7199,0.153790
879.6517,0.150963
880.5836,0.146750
881.5154,0.141457
882.4472,0.134950
883.3791,0.128003
884.3109,0.121864
885.2427,0.116860
886.1746,0.112120
887.1064,0.107736
888.0382,0.103965
888.9701,0.100895
889.9019,0.098879
890.8337,0.096740
891.7656,0.094283
892.6974,0.092360
893.6292,0.091188
894.5611,0.090260
895.4929,0.089189
896.4247,0.088019
897.3566,0.087034
898.2884,0.085859
899.2203,0.085100
900.1521,0.084341
901.0839,0.083014
902.0158,0.082027
902.9476,0.081650
903.8794,0.081360
904.8113,0.080574
905.7431,0.079763
906.6749,0.079256
907.6068,0.078416
908.5386,0.077768
909.4704,0.077280
910.4023,0.076476
911.3341,0.075421
912.2659,0.074976
913.1978,0.075248
914.1296,0.074758
915.0614,0.073772
915.9933,0.073272
916.9251,0.073006
917.8569,0.072547
918.7888,0.072205
919.7206,0.072133
920.6524,0.071593
921.5843,0.070749
922.5161,0.070562
923.4479,0.070107
924.3798,0.069213
925.3116,0.068415
926.2435,0.067823
927.1753,0.067658
928.1071,0.067955
929.0390,0.067746
929.9708,0.066724
930.9026,0.065953
931.8345,0.065723
932.7663,0.065334
933.6981,0.065092
934.6300,0.065206
935.5618,0.064928
936.4936,0.064173
937.4255,0.063678
938.3573,0.063721
939.2891,0.063707
940.2210,0.063476
941.1528,0.063319
942.0846,0.062944
943.0165,0.062076
943.9483,0.061522
944.8801,0.061327
945.8120,0.061057
946.7438,0.061091
947.6756,0.060921
948.6075,0.060351
949.5393,0.060161
950.4711,0.060216
951.4030,0.059891
952.3348,0.059108
953.2667,0.058846
954.1985,0.058858
955.1303,0.058727
956.0622,0.058701
956.9940,0.058786
957.9258,0.058782
958.8577,0.058456
959.7895,0.058300
960.7213,0.058262
961.6532,0.057949
962.5850,0.057446
963.5168,0.057294
964.4487,0.056839
965.3805,0.056414
966.3123,0.056580
967.2442,0.056408
968.1760,0.056076
969.1078,0.055908
970.0397,0.056072
970.9715,0.056315
971.9033,0.056179
972.8352,0.055939
973.7670,0.055683
974.6988,0.055749
975.6307,0.055540
976.5625,0.055067
977.4943,0.055010
978.4262,0.054768
979.3580,0.054784
980.2899,0.055030
981.2217,0.054932
982.1535,0.054774
983.0854,0.054860
984.0172,0.054846
984.9490,0.054804
985.8809,0.054691
986.8127,0.054719
987.7445,0.054886
988.6764,0.054696
989.6082,0.054662
990.5400,0.054686
991.4719,0.054699
992.4037,0.054853
993.3355,0.055013
994.2674,0.055143
995.1992,0.055217
996.1310,0.055212
997.0629,0.055162
997.9947,0.055145
998.9265,0.055377
999.8584,0.055582
1000.7902,0.055593
1001.7220,0.055787
1002.6539,0.055939
1003.5857,0.056300
1004.5175,0.056477
1005.4494,0.056535
1006.3812,0.056897
1007.3131,0.057221
1008.2449,0.057522
1009.1767,0.057940
1010.1086,0.058354
1011.0404,0.058680
1011.9722,0.059153
1012.9041,0.059637
1013.8359,0.060270
1014.7677,0.061316
1015.6996,0.062115
1016.6314,0.062468
1017.5632,0.063263
1018.4951,0.064421
1019.4269,0.065413
1020.3587,0.066535
1021.2906,0.067948
1022.2224,0.069600
1023.1542,0.071440
1024.0861,0.073345
1025.0179,0.075141
1025.9497,0.077361
1026.8816,0.079946
1027.8134,0.082738
1028.7452,0.085923
1029.6771,0.089756
1030.6089,0.093967
1031.5407,0.098519
1032.4726,0.103871
1033.4044,0.110599
1034.3362,0.118277
1035.2681,0.126861
1036.1999,0.136581
1037.1318,0.147318
1038.0636,0.159465
1038.9954,0.172372
1039.9273,0.185078
1040.8591,0.197396
1041.7909,0.208699
1042.7228,0.217259
1043.6546,0.222187
1044.5864,0.223479
1045.5183,0.220577
1046.4501,0.213474
1047.3819,0.203061
1048.3138,0.190705
1049.2456,0.177416
1050.1774,0.163190
1051.1093,0.148988
1052.0411,0.135954
1052.9729,0.124060
1053.9048,0.113379
1054.8366,0.103831
1055.7684,0.095515
1056.7003,0.088834
1057.6321,0.083384
1058.5639,0.078733
1059.4958,0.075072
1060.4276,0.072266
1061.3594,0.070174
1062.2913,0.068476
1063.2231,0.067240
1064.1550,0.066628
1065.0868,0.066231
1066.0186,0.066105
1066.9505,0.066344
1067.8823,0.066823
1068.8141,0.067438
1069.7460,0.067842
1070.6778,0.068605
1071.6096,0.070281
1072.5415,0.071939
1073.4733,0.073366
1074.4051,0.075102
1075.3370,0.077019
1076.2688,0.079323
1077.2006,0.081980
1078.1325,0.084478
1079.0643,0.087125
1079.9961,0.089857
1080.9280,0.092017
1081.8598,0.094100
1082.7916,0.096205
1083.7235,0.097727
1084.6553,0.098442
1085.5871,0.098900
1086.5190,0.098373
1087.4508,0.096777
1088.3826,0.095190
1089.3145,0.092957
1090.2463,0.089738
1091.1782,0.086113
1092.1100,0.082378
1093.0418,0.078512
1093.9737,0.074856
1094.9055,0.071609
1095.8373,0.068309
1096.7692,0.065230
1097.7010,0.062634
1098.6328,0.060215
1099.5647,0.058212
1100.4965,0.056387
1101.4283,0.054592
1102.3602,0.053240
1103.2920,0.052186
1104.2238,0.051155
1105.1557,0.050211
1106.0875,0.049289
1107.0193,0.048621
1107.9512,0.048244
1108.8830,0.047814
1109.8148,0.047362
1110.7467,0.047090
1111.6785,0.046869
1112.6103,0.046379
1113.5422,0.045937
1114.4740,0.045860
1115.4058,0.045894
1116.3377,0.045768
1117.2695,0.045656
1118.2014,0.045688
1119.1332,0.045601
1120.0650,0.045492
1120.9969,0.045370
1121.9287,0.045410
1122.8605,0.045554
1123.7924,0.045399
1124.7242,0.045160
1125.6560,0.045170
1126.5879,0.045317
1127.5197,0.045299
1128.4515,0.045025
1129.3834,0.044732
1130.3152,0.044811
1131.2470,0.044797
1132.1789,0.044746
1133.1107,0.044763
1134.0425,0.044536
1134.9744,0.044309
1135.9062,0.044304
1136.8380,0.044056
1137.7699,0.043950
1138.7017,0.043971
1139.6335,0.043576
1140.5654,0.043428
1141.4972,0.043390
1142.4290,0.043142
1143.3609,0.042913
1144.2927,0.042851
1145.2246,0.043110
1146.1564,0.043265
1147.0882,0.042985
1148.0201,0.042868
1148.9519,0.043155
1149.8837,0.043143
1150.8156,0.043096
1151.7474,0.043319
1152.6792,0.043363
1153.6111,0.043293
1154.5429,0.043242
1155.4747,0.042960
1156.4066,0.042781
1157.3384,0.042968
1158.2702,0.042899
1159.2021,0.042598
1160.1339,0.042433
1161.0657,0.042377
1161.9976,0.042192
1162.9294,0.041975
1163.8612,0.042032
1164.7931,0.041708
1165.7249,0.041468
1166.6567,0.041510
1167.5886,0.041493
1168.5204,0.041462
1169.4522,0.041262
1170.3841,0.040969
1171.3159,0.041019
1172.2477,0.041071
1173.1796,0.040981
1174.1114,0.040731
1175.0433,0.040772
1175.9751,0.040905
1176.9069,0.040930
1177.8388,0.040940
1178.7706,0.040891
1179.7024,0.040769
1180.6343,0.040735
1181.5661,0.040762
1182.4979,0.040826
1183.4298,0.040796
1184.3616,0.040853
1185.2934,0.040876
1186.2253,0.040672
1187.1571,0.040633
1188.0889,0.040648
1189.0208,0.040808
1189.9526,0.041033
1190.8844,0.041071
1191.8163,0.040851
1192.7481,0.040766
1193.6799,0.040961
1194.6118,0.040923
1195.5436,0.040601
1196.4754,0.040493
1197.4073,0.040774
1198.3391,0.040995
1199.2709,0.040838
1200.2028,0.040958
1201.1346,0.041188
1202.0665,0.041038
1202.9983,0.040953
1203.9301,0.041187
1204.8620,0.041325
1205.7938,0.041299
1206.7256,0.041324
1207.6575,0.041389
1208.5893,0.041307
1209.5211,0.041409
1210.4530,0.041483
1211.3848,0.041491
1212.3166,0.041413
1213.2485,0.041255
1214.1803,0.041353
1215.1121,0.041441
1216.0440,0.041468
1216.9758,0.041603
1217.9076,0.041745
1218.8395,0.041617
1219.7713,0.041613
1220.7031,0.041825
1221.6350,0.041887
1222.5668,0.041812
1223.4986,0.041886
1224.4305,0.042033
1225.3623,0.042165
1226.2941,0.042215
1227.2260,0.042180
1228.1578,0.042253
1229.0897,0.042356
1230.0215,0.042374
1230.9533,0.042425
1231.8852,0.042528
1232.8170,0.042736
1233.7488,0.042728
1234.6807,0.042646
1235.6125,0.042508
1236.5443,0.042242
1237.4762,0.042593
1238.4080,0.043022
1239.3398,0.043018
1240.2717,0.043000
1241.2035,0.043076
1242.1353,0.043222
1243.0672,0.043307
1243.9990,0.043287
1244.9308,0.043440
1245.8627,0.043754
1246.7945,0.043777
1247.7263,0.043664
1248.6582,0.043888
1249.5900,0.044296
1250.5218,0.044628
1251.4537,0.044689
1252.3855,0.044822
1253.3173,0.045208
1254.2492,0.045535
1255.1810,0.045654
1256.1129,0.045779
1257.0447,0.045959
1257.9765,0.046110
1258.9084,0.046550
1259.8402,0.047013
1260.7720,0.047444
1261.7039,0.047906
1262.6357,0.048052
1263.5675,0.048335
1264.4994,0.048764
1265.4312,0.049269
1266.3630,0.049849
1267.2949,0.050400
1268.2267,0.050797
1269.1585,0.051277
1270.0904,0.051730
1271.0222,0.052112
1271.9540,0.052542
1272.8859,0.052816
1273.8177,0.053050
1274.7495,0.053218
1275.6814,0.053131
1276.6132,0.052907
1277.5450,0.052571
1278.4769,0.052196
1279.4087,0.051617
1280.3405,0.051296
1281.2724,0.051240
1282.2042,0.050850
1283.1361,0.050409
1284.0679,0.050235
1284.9997,0.049871
1285.9316,0.049604
1286.8634,0.049529
1287.7952,0.049479
1288.7271,0.049600
1289.6589,0.049768
1290.5907,0.049872
1291.5226,0.049631
1292.4544,0.049189
1293.3862,0.049287
1294.3181,0.049594
1295.2499,0.049906
1296.1817,0.050134
1297.1136,0.050184
1298.0454,0.050186
1298.9772,0.050263
1299.9091,0.050427
1300.8409,0.050815
1301.7727,0.051223
1302.7046,0.051144
1303.6364,0.051185
1304.5682,0.051575
1305.5001,0.051864
1306.4319,0.052156
1307.3637,0.052407
1308.2956,0.052531
1309.2274,0.052734
1310.1592,0.052823
1311.0911,0.052824
1312.0229,0.053083
1312.9548,0.053536
1313.8866,0.053850
1314.8184,0.054040
1315.7503,0.054201
1316.6821,0.054294
1317.6139,0.054340
1318.5458,0.054352
1319.4776,0.054877
1320.4094,0.055110
1321.3413,0.055011
1322.2731,0.055084
1323.2049,0.054916
1324.1368,0.054929
1325.0686,0.054970
1326.0004,0.054847
1326.9323,0.054765
1327.8641,0.054988
1328.7959,0.055161
1329.7278,0.054920
1330.6596,0.054772
1331.5914,0.054744
1332.5233,0.054436
1333.4551,0.054089
1334.3869,0.053844
1335.3188,0.053419
1336.2506,0.052846
1337.1824,0.052634
1338.1143,0.052436
1339.0461,0.052407
1339.9780,0.052703
1340.9098,0.052924
1341.8416,0.052504
1342.7735,0.051706
1343.7053,0.051335
1344.6371,0.051159
1345.5690,0.050675
1346.5008,0.050083
1347.4326,0.049896
1348.3645,0.049840
1349.2963,0.049948
1350.2281,0.050130
1351.1600,0.049932
1352.0918,0.049596
1353.0236,0.049509
1353.9555,0.049292
1354.8873,0.049152
1355.8191,0.049220
1356.7510,0.049254
1357.6828,0.049146
1358.6146,0.048880
1359.5465,0.048575
1360.4783,0.048504
1361.4101,0.049171
1362.3420,0.049820
1363.2738,0.050185
1364.2056,0.050286
1365.1375,0.049787
1366.0693,0.050130
1367.0012,0.050615
1367.9330,0.051187
1368.8648,0.051771
1369.7967,0.052104
1370.7285,0.052453
1371.6603,0.053035
1372.5922,0.053904
1373.5240,0.055326
1374.4558,0.057176
1375.3877,0.058684
1376.3195,0.059616
1377.2513,0.060050
1378.1832,0.060569
1379.1150,0.061364
1380.0468,0.061931
1380.9787,0.062265
1381.9105,0.062242
1382.8423,0.062192
1383.7742,0.062260
1384.7060,0.062547
1385.6378,0.062824
1386.5697,0.063189
1387.5015,0.063528
1388.4333,0.063631
1389.3652,0.062701
1390.2970,0.061867
1391.2288,0.061449
1392.1607,0.060869
1393.0925,0.060386
1394.0244,0.060210
1394.9562,0.060526
1395.8880,0.060730
1396.8199,0.060388
1397.7517,0.060516
1398.6835,0.060965
1399.6154,0.061564
1400.5472,0.061336
1401.4790,0.060368
1402.4109,0.060070
1403.3427,0.060176
1404.2745,0.060445
1405.2064,0.061379
1406.1382,0.062302
1407.0700,0.061997
1408.0019,0.061640
1408.9337,0.061649
1409.8655,0.061799
1410.7974,0.062068
1411.7292,0.062363
1412.6610,0.062403
1413.5929,0.062173
1414.5247,0.062012
1415.4565,0.061623
1416.3884,0.061090
1417.3202,0.061115
1418.2520,0.062042
1419.1839,0.063000
1420.1157,0.064021
1421.0476,0.063084
1421.9794,0.061534
1422.9112,0.060935
1423.8431,0.060974
1424.7749,0.061567
1425.7067,0.060708
1426.6386,0.059617
1427.5704,0.059470
1428.5022,0.059186
1429.4341,0.058479
1430.3659,0.058244
1431.2977,0.058038
1432.2296,0.057352
1433.1614,0.056741
1434.0932,0.056001
1435.0251,0.055400
1435.9569,0.055094
1436.8887,0.055830
1437.8206,0.056831
1438.7524,0.055725
1439.6842,0.054889
1440.6161,0.054797
1441.5479,0.054738
1442.4797,0.054656
1443.4116,0.054683
1444.3434,0.054938
1445.2752,0.055468
1446.2071,0.056189
1447.1389,0.057192
1448.0707,0.058509
1449.0026,0.059595
1449.9344,0.059669
1450.8663,0.059516
1451.7981,0.059566
1452.7299,0.059816
1453.6618,0.059507
1454.5936,0.058780
1455.5254,0.058833
1456.4573,0.059219
1457.3891,0.059499
1458.3209,0.059096
1459.2528,0.058041
1460.1846,0.055845
1461.1164,0.053018
1462.0483,0.051412
1462.9801,0.050893
1463.9119,0.050258
1464.8438,0.049718
1465.7756,0.049743
1466.7074,0.048345
1467.6393,0.047165
1468.5711,0.046933
1469.5029,0.046241
1470.4348,0.045330
1471.3666,0.045277
1472.2984,0.046360
1473.2303,0.047480
1474.1621,0.047240
1475.0939,0.046018
1476.0258,0.045347
1476.9576,0.046032
1477.8895,0.046253
1478.8213,0.045999
1479.7531,0.045979
1480.6850,0.046108
1481.6168,0.046597
1482.5486,0.046861
1483.4805,0.046570
1484.4123,0.046145
1485.3441,0.045831
1486.2760,0.045769
1487.2078,0.045668
1488.1396,0.045661
1489.0715,0.045372
1490.0033,0.045387
1490.9351,0.045643
1491.8670,0.044989
1492.7988,0.043809
1493.7306,0.042976
1494.6625,0.042360
1495.5943,0.042276
1496.5261,0.042975
1497.4580,0.043176
1498.3898,0.042303
1499.3216,0.042538
1500.2535,0.042524
1501.1853,0.041657
1502.1171,0.041314
1503.0490,0.041366
1503.9808,0.041239
1504.9127,0.040940
1505.8445,0.041595
1506.7763,0.043624
1507.7082,0.044926
1508.6400,0.044093
1509.5718,0.042760
1510.5037,0.042381
1511.4355,0.042192
1512.3673,0.041877
1513.2992,0.042008
1514.2310,0.041568
1515.1628,0.041716
1516.0947,0.042613
1517.0265,0.042839
1517.9583,0.042984
1518.8902,0.042033
1519.8220,0.041164
1520.7538,0.042110
1521.6857,0.043561
1522.6175,0.043343
1523.5493,0.042512
1524.4812,0.042204
1525.4130,0.042764
1526.3448,0.043586
1527.2767,0.043321
1528.2085,0.043449
1529.1403,0.043565
1530.0722,0.042630
1531.0040,0.041924
1531.9359,0.042600
1532.8677,0.043235
1533.7995,0.043987
1534.7314,0.044728
1535.6632,0.043436
1536.5950,0.042507
1537.5269,0.042299
1538.4587,0.042739
1539.3905,0.044328
1540.3224,0.045728
1541.2542,0.044618
1542.1860,0.044841
1543.1179,0.046192
1544.0497,0.045685
1544.9815,0.044896
1545.9134,0.045667
1546.8452,0.045874
1547.7770,0.045093
1548.7089,0.044865
1549.6407,0.045260
1550.5725,0.046321
1551.5044,0.046611
1552.4362,0.045746
1553.3680,0.045440
1554.2999,0.045866
1555.2317,0.047298
1556.1635,0.047184
1557.0954,0.045835
1558.0272,0.047377
1558.9591,0.051280
1559.8909,0.052953
1560.8227,0.052993
1561.7546,0.051039
1562.6864,0.049259
1563.6182,0.049203
1564.5501,0.049994
1565.4819,0.050875
1566.4137,0.051006
1567.3456,0.050609
1568.2774,0.050561
1569.2092,0.051587
1570.1411,0.053572
1571.0729,0.054351
1572.0047,0.053445
1572.9366,0.053068
1573.8684,0.053046
1574.8002,0.053380
1575.7321,0.054505
1576.6639,0.056960
1577.5957,0.059325
1578.5276,0.058703
1579.4594,0.057947
1580.3912,0.058266
1581.3231,0.058845
1582.2549,0.059369
1583.1867,0.060158
1584.1186,0.061093
1585.0504,0.062051
1585.9822,0.062631
1586.9141,0.063331
1587.8459,0.064260
1588.7778,0.064758
1589.7096,0.065563
1590.6414,0.067123
1591.5733,0.068125
1592.5051,0.068738
1593.4369,0.069770
1594.3688,0.070992
1595.3006,0.072223
1596.2324,0.073238
1597.1643,0.074379
