Wavenumber,Intensity
650.4205,0.390577
651.3523,0.403687
652.2841,0.409121
653.2160,0.389923
654.1478,0.380234
655.0796,0.385040
656.0115,0.396179
656.9433,0.397823
657.8751,0.384566
658.8070,0.371760
659.7388,0.369316
660.6706,0.375020
661.6025,0.374310
662.5343,0.369328
663.4661,0.365582
664.3980,0.364408
665.3298,0.362740
666.2616,0.367465
667.1935,0.375103
668.1253,0.386088
669.0571,0.399277
669.9890,0.391860
670.9208,0.379353
671.8526,0.372398
672.7845,0.371295
673.7163,0.364323
674.6481,0.354324
675.5800,0.351452
676.5118,0.355444
677.4437,0.364679
678.3755,0.363699
679.3073,0.354113
680.2392,0.347088
681.1710,0.349457
682.1028,0.352520
683.0347,0.347597
683.9665,0.347394
684.8983,0.352168
685.8302,0.352082
686.7620,0.350298
687.6938,0.347797
688.6257,0.344113
689.5575,0.344079
690.4893,0.345617
691.4212,0.340001
692.3530,0.337006
693.2848,0.335444
694.2167,0.335865
695.1485,0.337637
696.0803,0.338083
697.0122,0.335514
697.9440,0.330610
698.8758,0.327224
699.8077,0.326357
700.7395,0.327673
701.6713,0.327296
702.6032,0.324575
703.5350,0.324043
704.4669,0.324568
705.3987,0.323438
706.3305,0.321459
707.2624,0.322571
708.1942,0.319609
709.1260,0.314355
710.0579,0.313358
710.9897,0.311936
711.9215,0.308875
712.8534,0.309497
713.7852,0.309509
714.7170,0.306658
715.6489,0.304606
716.5807,0.305026
717.5125,0.303772
718.4444,0.301791
719.3762,0.301842
720.3080,0.301732
721.2399,0.298293
722.1717,0.296952
723.1035,0.296741
724.0354,0.296863
724.9672,0.293081
725.8990,0.289643
726.8309,0.290759
727.7627,0.291024
728.6945,0.287816
729.6264,0.286267
730.5582,0.288175
731.4901,0.289346
732.4219,0.285141
733.3537,0.279673
734.2856,0.277683
735.2174,0.278717
736.1492,0.276749
737.0811,0.275310
738.0129,0.276389
738.9447,0.276582
739.8766,0.273543
740.8084,0.272717
741.7402,0.271412
742.6721,0.266674
743.6039,0.263732
744.5357,0.265051
745.4676,0.264780
746.3994,0.261193
747.3312,0.260775
748.2631,0.261840
749.1949,0.259640
750.1267,0.256419
751.0586,0.254354
751.9904,0.254492
752.9222,0.254854
753.8541,0.253763
754.7859,0.252191
755.7177,0.250443
756.6496,0.247369
757.5814,0.246535
758.5132,0.245829
759.4451,0.244610
760.3769,0.242578
761.3088,0.240461
762.2406,0.240382
763.1724,0.240283
764.1043,0.238875
765.0361,0.237188
765.9679,0.236562
766.8998,0.235503
767.8316,0.233789
768.7634,0.232087
769.6953,0.231588
770.6271,0.230966
771.5589,0.228973
772.4908,0.227640
773.4226,0.227838
774.3544,0.226420
775.2863,0.223413
776.2181,0.222061
777.1499,0.220673
778.0818,0.219339
779.0136,0.217493
779.9454,0.216190
780.8773,0.215368
781.8091,0.213835
782.7409,0.212523
783.6728,0.212291
784.6046,0.211162
785.5364,0.209496
786.4683,0.208533
787.4001,0.208330
788.3320,0.207073
789.2638,0.205381
790.1956,0.204107
791.1275,0.202706
792.0593,0.200739
792.9911,0.199344
793.9230,0.197265
794.8548,0.196188
795.7866,0.196030
796.7185,0.195663
797.6503,0.195206
798.5821,0.193896
799.5140,0.191613
800.4458,0.189765
801.3776,0.188858
802.3095,0.188728
803.2413,0.188134
804.1731,0.186821
805.1050,0.185052
806.0368,0.183669
806.9686,0.182650
807.9005,0.181719
808.8323,0.179849
809.7641,0.177982
810.6960,0.175751
811.6278,0.174453
812.5596,0.173823
813.4915,0.173199
814.4233,0.172278
815.3552,0.171190
816.2870,0.169688
817.2188,0.168709
818.1507,0.168036
819.0825,0.166515
820.0143,0.164355
820.9462,0.163598
821.8780,0.162780
822.8098,0.161791
823.7417,0.160921
824.6735,0.159535
825.6053,0.158327
826.5372,0.157425
827.4690,0.156583
828.4008,0.155713
829.3327,0.154580
830.2645,0.153141
831.1963,0.151309
832.1282,0.151267
833.0600,0.150854
833.9918,0.149436
834.9237,0.148030
835.8555,0.146418
836.7873,0.145126
837.7192,0.144552
838.6510,0.144003
839.5828,0.142834
840.5147,0.141390
841.4465,0.139865
842.3784,0.138433
843.3102,0.137962
844.2420,0.137652
845.1739,0.136348
846.1057,0.135887
847.0375,0.135162
847.9694,0.133723
848.9012,0.133092
849.8330,0.131905
850.7649,0.131731
851.6967,0.131454
852.6285,0.130149
853.5604,0.129298
854.4922,0.128740
855.4240,0.127405
856.3559,0.126391
857.2877,0.126218
858.2195,0.125381
859.1514,0.124470
860.0832,0.124533
861.0150,0.123693
861.9469,0.123168
862.8787,0.123596
863.8105,0.123218
864.7424,0.122166
865.6742,0.121745
866.6060,0.122337
867.5379,0.123284
868.4697,0.123882
869.4016,0.125441
870.3334,0.127521
871.2652,0.129089
872.1971,0.130834
873.1289,0.132942
874.0607,0.135379
874.9926,0.137336
875.9244,0.139360
876.8562,0.141537
877.7881,0.142538
878.7199,0.141257
879.6517,0.138680
880.5836,0.135653
881.5154,0.131194
882.4472,0.126128
883.3791,0.121452
884.3109,0.116491
885.2427,0.111936
886.1746,0.108550
887.1064,0.105671
888.0382,0.103184
888.9701,0.100866
889.9019,0.098881
890.8337,0.096694
891.7656,0.094894
892.6974,0.093580
893.6292,0.092446
894.5611,0.091091
895.4929,0.090132
896.4247,0.089588
897.3566,0.089447
898.2884,0.087942
899.2203,0.085813
900.1521,0.085258
901.0839,0.085339
902.0158,0.084839
902.9476,0.084070
903.8794,0.083171
904.8113,0.082327
905.7431,0.081880
906.6749,0.081457
907.6068,0.080804
908.5386,0.080266
909.4704,0.079500
910.4023,0.078898
911.3341,0.078266
912.2659,0.077334
913.1978,0.076740
914.1296,0.076399
915.0614,0.075893
915.9933,0.075396
916.9251,0.075134
917.8569,0.075321
918.7888,0.074798
919.7206,0.073663
920.6524,0.072924
921.5843,0.072550
922.5161,0.072108
923.4479,0.071637
924.3798,0.071073
925.3116,0.070187
926.2435,0.069829
927.1753,0.070062
928.1071,0.069745
929.0390,0.069120
929.9708,0.068639
930.9026,0.068421
931.8345,0.068249
932.7663,0.068186
933.6981,0.067760
934.6300,0.066985
935.5618,0.066498
936.4936,0.066274
937.4255,0.066189
938.3573,0.065727
939.2891,0.065185
940.2210,0.064594
941.1528,0.064071
942.0846,0.063848
943.0165,0.064014
943.9483,0.064230
944.8801,0.063662
945.8120,0.063001
946.7438,0.062744
947.6756,0.062321
948.6075,0.061961
949.5393,0.061983
950.4711,0.062071
951.4030,0.061663
952.3348,0.061208
953.2667,0.060734
954.1985,0.060446
955.1303,0.060270
956.0622,0.060037
956.9940,0.059702
957.9258,0.059606
958.8577,0.059773
959.7895,0.059412
960.7213,0.058564
961.6532,0.058334
962.5850,0.058615
963.5168,0.058539
964.4487,0.058315
965.3805,0.058265
966.3123,0.057721
967.2442,0.057534
968.1760,0.057680
969.1078,0.057555
970.0397,0.057300
970.9715,0.056804
971.9033,0.056693
972.8352,0.056714
973.7670,0.056469
974.6988,0.056441
975.6307,0.056685
976.5625,0.056395
977.4943,0.056011
978.4262,0.056108
979.3580,0.056062
980.2899,0.055758
981.2217,0.055463
982.1535,0.055429
983.0854,0.055634
984.0172,0.055790
984.9490,0.055510
985.8809,0.055093
986.8127,0.055095
987.7445,0.055223
988.6764,0.055349
989.6082,0.055254
990.5400,0.054997
991.4719,0.054944
992.4037,0.054765
993.3355,0.054530
994.2674,0.054820
995.1992,0.055156
996.1310,0.055026
997.0629,0.054848
997.9947,0.055192
998.9265,0.055251
999.8584,0.055003
1000.7902,0.055259
1001.7220,0.055411
1002.6539,0.055397
1003.5857,0.055507
1004.5175,0.055763
1005.4494,0.056032
1006.3812,0.055975
1007.3131,0.055818
1008.2449,0.056229
1009.1767,0.056644
1010.1086,0.056747
1011.0404,0.056832
1011.9722,0.056907
1012.9041,0.057365
1013.8359,0.058115
1014.7677,0.058725
1015.6996,0.059161
1016.6314,0.059688
1017.5632,0.060188
1018.4951,0.060823
1019.4269,0.061647
1020.3587,0.062372
1021.2906,0.063298
1022.2224,0.064461
1023.1542,0.065581
1024.0861,0.067033
1025.0179,0.068685
1025.9497,0.070125
1026.8816,0.071617
1027.8134,0.073667
1028.7452,0.076126
1029.6771,0.078682
1030.6089,0.081480
1031.5407,0.084701
1032.4726,0.088486
1033.4044,0.092787
1034.3362,0.098179
1035.2681,0.104703
1036.1999,0.111644
1037.1318,0.119231
1038.0636,0.127971
1038.9954,0.137176
1039.9273,0.146730
1040.8591,0.156602
1041.7909,0.165667
1042.7228,0.172595
1043.6546,0.177037
1044.5864,0.178895
1045.5183,0.177641
1046.4501,0.172790
1047.3819,0.165390
1048.3138,0.155744
1049.2456,0.144605
1050.1774,0.133438
1051.1093,0.122906
1052.0411,0.112829
1052.9729,0.103493
1053.9048,0.095286
1054.8366,0.088232
1055.7684,0.082365
1056.7003,0.077627
1057.6321,0.073634
1058.5639,0.070506
1059.4958,0.067917
1060.4276,0.065670
1061.3594,0.063998
1062.2913,0.063050
1063.2231,0.062402
1064.1550,0.061825
1065.0868,0.061217
1066.0186,0.060959
1066.9505,0.061112
1067.8823,0.061466
1068.8141,0.062006
1069.7460,0.062428
1070.6778,0.063135
1071.6096,0.064428
1072.5415,0.065676
1073.4733,0.066750
1074.4051,0.067834
1075.3370,0.069188
1076.2688,0.070974
1077.2006,0.072817
1078.1325,0.074571
1079.0643,0.076278
1079.9961,0.078153
1080.9280,0.079908
1081.8598,0.081437
1082.7916,0.082708
1083.7235,0.083760
1084.6553,0.084607
1085.5871,0.084849
1086.5190,0.084392
1087.4508,0.083419
1088.3826,0.081799
1089.3145,0.079825
1090.2463,0.077777
1091.1782,0.075124
1092.1100,0.072270
1093.0418,0.069509
1093.9737,0.067105
1094.9055,0.064695
1095.8373,0.062174
1096.7692,0.059810
1097.7010,0.057860
1098.6328,0.056313
1099.5647,0.054830
1100.4965,0.053477
1101.4283,0.052398
1102.3602,0.051511
1103.2920,0.050663
1104.2238,0.049768
1105.1557,0.049218
1106.0875,0.048495
1107.0193,0.047880
1107.9512,0.047774
1108.8830,0.047522
1109.8148,0.047024
1110.7467,0.046555
1111.6785,0.046498
1112.6103,0.046471
1113.5422,0.046319
1114.4740,0.046204
1115.4058,0.045981
1116.3377,0.045916
1117.2695,0.045877
1118.2014,0.045938
1119.1332,0.045772
1120.0650,0.045483
1120.9969,0.045417
1121.9287,0.045490
1122.8605,0.045702
1123.7924,0.045818
1124.7242,0.045765
1125.6560,0.045648
1126.5879,0.045435
1127.5197,0.045300
1128.4515,0.045287
1129.3834,0.045544
1130.3152,0.045430
1131.2470,0.045330
1132.1789,0.045203
1133.1107,0.045004
1134.0425,0.044853
1134.9744,0.044766
1135.9062,0.044726
1136.8380,0.044721
1137.7699,0.044673
1138.7017,0.044490
1139.6335,0.044243
1140.5654,0.044317
1141.4972,0.044289
1142.4290,0.044147
1143.3609,0.044131
1144.2927,0.044215
1145.2246,0.044214
1146.1564,0.044100
1147.0882,0.044236
1148.0201,0.044281
1148.9519,0.044102
1149.8837,0.043953
1150.8156,0.043973
1151.7474,0.044188
1152.6792,0.044127
1153.6111,0.043822
1154.5429,0.043749
1155.4747,0.043936
1156.4066,0.043968
1157.3384,0.043880
1158.2702,0.043833
1159.2021,0.043750
1160.1339,0.043786
1161.0657,0.043803
1161.9976,0.043531
1162.9294,0.043308
1163.8612,0.043216
1164.7931,0.043040
1165.7249,0.042692
1166.6567,0.042473
1167.5886,0.042692
1168.5204,0.042856
1169.4522,0.042730
1170.3841,0.042514
1171.3159,0.042488
1172.2477,0.042462
1173.1796,0.042335
1174.1114,0.042338
1175.0433,0.042489
1175.9751,0.042584
1176.9069,0.042531
1177.8388,0.042434
1178.7706,0.042425
1179.7024,0.042469
1180.6343,0.042300
1181.5661,0.042098
1182.4979,0.042239
1183.4298,0.042292
1184.3616,0.042193
1185.2934,0.042089
1186.2253,0.042086
1187.1571,0.042386
1188.0889,0.042662
1189.0208,0.042580
1189.9526,0.042280
1190.8844,0.042174
1191.8163,0.042544
1192.7481,0.042670
1193.6799,0.042538
1194.6118,0.042519
1195.5436,0.042400
1196.4754,0.042300
1197.4073,0.042374
1198.3391,0.042610
1199.2709,0.042721
1200.2028,0.042869
1201.1346,0.042746
1202.0665,0.042485
1202.9983,0.042626
1203.9301,0.042824
1204.8620,0.042693
1205.7938,0.042675
1206.7256,0.042748
1207.6575,0.042639
1208.5893,0.042740
1209.5211,0.042963
1210.4530,0.042883
1211.3848,0.042656
1212.3166,0.042910
1213.2485,0.043216
1214.1803,0.043177
1215.1121,0.042963
1216.0440,0.042934
1216.9758,0.042914
1217.9076,0.042941
1218.8395,0.042877
1219.7713,0.042909
1220.7031,0.043126
1221.6350,0.043014
1222.5668,0.042843
1223.4986,0.042904
1224.4305,0.043027
1225.3623,0.043135
1226.2941,0.043313
1227.2260,0.043230
1228.1578,0.043166
1229.0897,0.043408
1230.0215,0.043762
1230.9533,0.043764
1231.8852,0.043609
1232.8170,0.043773
1233.7488,0.043694
1234.6807,0.043589
1235.6125,0.043785
1236.5443,0.043955
1237.4762,0.044107
1238.4080,0.044164
1239.3398,0.044087
1240.2717,0.044108
1241.2035,0.044151
1242.1353,0.044095
1243.0672,0.044171
1243.9990,0.044344
1244.9308,0.044581
1245.8627,0.044866
1246.7945,0.044701
1247.7263,0.044575
1248.6582,0.044766
1249.5900,0.044820
1250.5218,0.044957
1251.4537,0.045082
1252.3855,0.045273
1253.3173,0.045601
1254.2492,0.045548
1255.1810,0.045486
1256.1129,0.045897
1257.0447,0.046208
1257.9765,0.046348
1258.9084,0.046731
1259.8402,0.046989
1260.7720,0.047176
1261.7039,0.047506
1262.6357,0.047903
1263.5675,0.048224
1264.4994,0.048489
1265.4312,0.048856
1266.3630,0.048955
1267.2949,0.049151
1268.2267,0.049623
1269.1585,0.049900
1270.0904,0.050215
1271.0222,0.050672
1271.9540,0.050824
1272.8859,0.050987
1273.8177,0.051213
1274.7495,0.051299
1275.6814,0.051332
1276.6132,0.051264
1277.5450,0.051092
1278.4769,0.050773
1279.4087,0.050378
1280.3405,0.050095
1281.2724,0.050032
1282.2042,0.049854
1283.1361,0.049424
1284.0679,0.049007
1284.9997,0.048989
1285.9316,0.049006
1286.8634,0.048805
1287.7952,0.048625
1288.7271,0.048458
1289.6589,0.048474
1290.5907,0.048622
1291.5226,0.048711
1292.4544,0.048672
1293.3862,0.048660
1294.3181,0.048882
1295.2499,0.049218
1296.1817,0.049311
1297.1136,0.049378
1298.0454,0.049439
1298.9772,0.049572
1299.9091,0.049670
1300.8409,0.049764
1301.7727,0.049863
1302.7046,0.049839
1303.6364,0.049936
1304.5682,0.049928
1305.5001,0.050136
1306.4319,0.050593
1307.3637,0.050840
1308.2956,0.050988
1309.2274,0.051058
1310.1592,0.051147
1311.0911,0.051470
1312.0229,0.051502
1312.9548,0.051448
1313.8866,0.051588
1314.8184,0.051736
1315.7503,0.052102
1316.6821,0.052271
1317.6139,0.052409
1318.5458,0.052497
1319.4776,0.052661
1320.4094,0.052834
1321.3413,0.052406
1322.2731,0.052073
1323.2049,0.052170
1324.1368,0.052390
1325.0686,0.052228
1326.0004,0.052163
1326.9323,0.052409
1327.8641,0.052408
1328.7959,0.052407
1329.7278,0.052655
1330.6596,0.052642
1331.5914,0.052374
1332.5233,0.052144
1333.4551,0.051891
1334.3869,0.051701
1335.3188,0.051206
1336.2506,0.050675
1337.1824,0.050758
1338.1143,0.051195
1339.0461,0.051034
1339.9780,0.050954
1340.9098,0.050806
1341.8416,0.050487
1342.7735,0.050058
1343.7053,0.049761
1344.6371,0.049589
1345.5690,0.049535
1346.5008,0.049373
1347.4326,0.049064
1348.3645,0.048872
1349.2963,0.048787
1350.2281,0.048585
1351.1600,0.048453
1352.0918,0.048300
1353.0236,0.048269
1353.9555,0.048569
1354.8873,0.048728
1355.8191,0.048641
1356.7510,0.048411
1357.6828,0.048092
1358.6146,0.047976
1359.5465,0.047786
1360.4783,0.047875
1361.4101,0.048301
1362.3420,0.048495
1363.2738,0.048968
1364.2056,0.049587
1365.1375,0.049113
1366.0693,0.048603
1367.0012,0.048872
1367.9330,0.049275
1368.8648,0.049866
1369.7967,0.050613
1370.7285,0.050736
1371.6603,0.050707
1372.5922,0.051017
1373.5240,0.052187
1374.4558,0.054225
1375.3877,0.055540
1376.3195,0.055637
1377.2513,0.055588
1378.1832,0.056013
1379.1150,0.056824
1380.0468,0.057605
1380.9787,0.057906
1381.9105,0.057787
1382.8423,0.058107
1383.7742,0.058494
1384.7060,0.058415
1385.6378,0.058317
1386.5697,0.058500
1387.5015,0.058993
1388.4333,0.059757
1389.3652,0.058965
1390.2970,0.057686
1391.2288,0.057252
1392.1607,0.057011
1393.0925,0.056802
1394.0244,0.056898
1394.9562,0.057581
1395.8880,0.057728
1396.8199,0.056699
1397.7517,0.056374
1398.6835,0.057098
1399.6154,0.057943
1400.5472,0.057634
1401.4790,0.056791
1402.4109,0.056572
1403.3427,0.056835
1404.2745,0.057097
1405.2064,0.057910
1406.1382,0.058841
1407.0700,0.058270
1408.0019,0.057633
1408.9337,0.057789
1409.8655,0.058215
1410.7974,0.058471
1411.7292,0.058514
1412.6610,0.058515
1413.5929,0.058219
1414.5247,0.057815
1415.4565,0.057343
1416.3884,0.057332
1417.3202,0.057882
1418.2520,0.058443
1419.1839,0.058751
1420.1157,0.059797
1421.0476,0.058935
1421.9794,0.057330
1422.9112,0.057004
1423.8431,0.057116
1424.7749,0.057710
1425.7067,0.057075
1426.6386,0.056234
1427.5704,0.056014
1428.5022,0.055620
1429.4341,0.055345
1430.3659,0.055619
1431.2977,0.055521
1432.2296,0.054281
1433.1614,0.053656
1434.0932,0.053493
1435.0251,0.052934
1435.9569,0.052540
1436.8887,0.053600
1437.8206,0.054702
1438.7524,0.053261
1439.6842,0.052678
1440.6161,0.052716
1441.5479,0.052763
1442.4797,0.052888
1443.4116,0.052777
1444.3434,0.052744
1445.2752,0.052833
1446.2071,0.053374
1447.1389,0.054100
1448.0707,0.055012
1449.0026,0.056325
1449.9344,0.056389
1450.8663,0.056056
1451.7981,0.056170
1452.7299,0.056586
1453.6618,0.056229
1454.5936,0.055373
1455.5254,0.055429
1456.4573,0.055737
1457.3891,0.056983
1458.3209,0.057796
1459.2528,0.056043
1460.1846,0.053970
1461.1164,0.051918
1462.0483,0.050675
1462.9801,0.049721
1463.9119,0.048988
1464.8438,0.049061
1465.7756,0.049168
1466.7074,0.047909
1467.6393,0.046937
1468.5711,0.046790
1469.5029,0.046250
1470.4348,0.045690
1471.3666,0.045790
1472.2984,0.046971
1473.2303,0.047981
1474.1621,0.047111
1475.0939,0.046287
1476.0258,0.046113
1476.9576,0.046996
1477.8895,0.047223
1478.8213,0.046788
1479.7531,0.046965
1480.6850,0.047016
1481.6168,0.047146
1482.5486,0.047235
1483.4805,0.046674
1484.4123,0.046640
1485.3441,0.046579
1486.2760,0.046248
1487.2078,0.046397
1488.1396,0.046803
1489.0715,0.046407
1490.0033,0.046688
1490.9351,0.047230
1491.8670,0.046186
1492.7988,0.044934
1493.7306,0.044339
1494.6625,0.044279
1495.5943,0.044373
1496.5261,0.045231
1497.4580,0.046064
1498.3898,0.044933
1499.3216,0.045011
1500.2535,0.045485
1501.1853,0.044700
1502.1171,0.044153
1503.0490,0.043767
1503.9808,0.043277
1504.9127,0.043008
1505.8445,0.044209
1506.7763,0.046991
1507.7082,0.048168
1508.6400,0.046520
1509.5718,0.045533
1510.5037,0.045050
1511.4355,0.044394
1512.3673,0.043997
1513.2992,0.044372
1514.2310,0.043970
1515.1628,0.044025
1516.0947,0.044783
1517.0265,0.045331
1517.9583,0.045955
1518.8902,0.044594
1519.8220,0.043391
1520.7538,0.044508
1521.6857,0.046485
1522.6175,0.047111
1523.5493,0.046130
1524.4812,0.044781
1525.4130,0.044793
1526.3448,0.046338
1527.2767,0.046341
1528.2085,0.046061
1529.1403,0.046367
1530.0722,0.045865
1531.0040,0.045478
1531.9359,0.045998
1532.8677,0.046979
1533.7995,0.048091
1534.7314,0.048735
1535.6632,0.047297
1536.5950,0.046315
1537.5269,0.046282
1538.4587,0.046282
1539.3905,0.047576
1540.3224,0.050840
1541.2542,0.050370
1542.1860,0.048220
1543.1179,0.048821
1544.0497,0.048498
1544.9815,0.048556
1545.9134,0.049625
1546.8452,0.049611
1547.7770,0.048792
1548.7089,0.049047
1549.6407,0.049994
1550.5725,0.051464
1551.5044,0.051613
1552.4362,0.050359
1553.3680,0.050127
1554.2999,0.050556
1555.2317,0.051204
1556.1635,0.050453
1557.0954,0.050225
1558.0272,0.052097
1558.9591,0.056191
1559.8909,0.059705
1560.8227,0.058044
1561.7546,0.055369
1562.6864,0.053844
1563.6182,0.053630
1564.5501,0.054066
1565.4819,0.055354
1566.4137,0.055719
1567.3456,0.055484
1568.2774,0.056223
1569.2092,0.057459
1570.1411,0.059305
1571.0729,0.059939
1572.0047,0.058533
1572.9366,0.058504
1573.8684,0.059284
1574.8002,0.059973
1575.7321,0.060976
1576.6639,0.063614
1577.5957,0.065752
1578.5276,0.064804
1579.4594,0.064493
1580.3912,0.065185
1581.3231,0.065978
1582.2549,0.066372
1583.1867,0.066945
1584.1186,0.067964
1585.0504,0.068715
1585.9822,0.069327
1586.9141,0.070236
1587.8459,0.071652
1588.7778,0.072779
1589.7096,0.073734
1590.6414,0.074787
1591.5733,0.075644
1592.5051,0.076566
1593.4369,0.077883
1594.3688,0.079535
1595.3006,0.081404
1596.2324,0.082796
1597.1643,0.083681
