Wavenumber,Intensity
650.4205,0.396987
651.3523,0.391217
652.2841,0.401278
653.2160,0.408840
654.1478,0.390003
655.0796,0.385942
656.0115,0.390598
656.9433,0.395321
657.8751,0.380644
658.8070,0.371869
659.7388,0.371092
660.6706,0.386601
661.6025,0.399279
662.5343,0.392584
663.4661,0.376152
664.3980,0.380255
665.3298,0.383098
666.2616,0.376419
667.1935,0.368185
668.1253,0.376937
669.0571,0.376458
669.9890,0.372324
670.9208,0.375023
671.8526,0.372700
672.7845,0.366759
673.7163,0.367259
674.6481,0.364517
675.5800,0.357987
676.5118,0.355657
677.4437,0.364282
678.3755,0.368243
679.3073,0.370551
680.2392,0.364643
681.1710,0.361524
682.1028,0.361712
683.0347,0.360753
683.9665,0.352010
684.8983,0.349354
685.8302,0.346440
686.7620,0.347182
687.6938,0.351105
688.6257,0.354904
689.5575,0.354649
690.4893,0.346641
691.4212,0.334528
692.3530,0.336782
693.2848,0.342498
694.2167,0.344785
695.1485,0.342224
696.0803,0.337708
697.0122,0.332212
697.9440,0.332301
698.8758,0.333845
699.8077,0.329730
700.7395,0.330303
701.6713,0.332803
702.6032,0.327021
703.5350,0.324694
704.4669,0.322508
705.3987,0.323367
706.3305,0.326154
707.2624,0.327305
708.1942,0.326517
709.1260,0.322140
710.0579,0.314902
710.9897,0.316309
711.9215,0.317602
712.8534,0.316723
713.7852,0.313993
714.7170,0.315682
715.6489,0.313377
716.5807,0.311519
717.5125,0.309160
718.4444,0.307294
719.3762,0.303052
720.3080,0.302549
721.2399,0.305347
722.1717,0.304501
723.1035,0.299525
724.0354,0.301755
724.9672,0.302171
725.8990,0.300785
726.8309,0.298968
727.7627,0.296457
728.6945,0.293615
729.6264,0.292242
730.5582,0.290166
731.4901,0.289137
732.4219,0.288405
733.3537,0.287137
734.2856,0.284320
735.2174,0.282717
736.1492,0.280206
737.0811,0.280330
738.0129,0.281256
738.9447,0.280434
739.8766,0.276535
740.8084,0.273849
741.7402,0.272874
742.6721,0.272499
743.6039,0.271507
744.5357,0.270964
745.4676,0.270810
746.3994,0.268194
747.3312,0.266126
748.2631,0.266308
749.1949,0.264472
750.1267,0.260719
751.0586,0.259315
751.9904,0.258445
752.9222,0.257282
753.8541,0.258788
754.7859,0.257665
755.7177,0.255559
756.6496,0.253926
757.5814,0.253326
758.5132,0.252406
759.4451,0.251652
760.3769,0.249404
761.3088,0.246956
762.2406,0.245029
763.1724,0.244799
764.1043,0.243748
765.0361,0.242537
765.9679,0.241244
766.8998,0.240022
767.8316,0.238035
768.7634,0.236173
769.6953,0.234270
770.6271,0.235240
771.5589,0.234248
772.4908,0.231852
773.4226,0.230799
774.3544,0.229533
775.2863,0.227610
776.2181,0.225523
777.1499,0.223007
778.0818,0.223593
779.0136,0.223025
779.9454,0.222684
780.8773,0.221303
781.8091,0.219196
782.7409,0.217525
783.6728,0.215938
784.6046,0.215378
785.5364,0.215901
786.4683,0.214081
787.4001,0.211245
788.3320,0.209811
789.2638,0.209818
790.1956,0.208517
791.1275,0.206582
792.0593,0.204701
792.9911,0.204303
793.9230,0.203522
794.8548,0.202478
795.7866,0.200476
796.7185,0.198998
797.6503,0.197538
798.5821,0.195543
799.5140,0.194806
800.4458,0.195167
801.3776,0.192896
802.3095,0.190586
803.2413,0.189509
804.1731,0.189855
805.1050,0.189431
806.0368,0.187379
806.9686,0.185179
807.9005,0.184395
808.8323,0.183706
809.7641,0.181965
810.6960,0.178955
811.6278,0.177653
812.5596,0.177549
813.4915,0.177174
814.4233,0.176046
815.3552,0.174584
816.2870,0.172314
817.2188,0.170718
818.1507,0.170327
819.0825,0.168792
820.0143,0.167625
820.9462,0.166386
821.8780,0.164721
822.8098,0.163970
823.7417,0.162554
824.6735,0.161527
825.6053,0.161102
826.5372,0.160375
827.4690,0.158851
828.4008,0.157562
829.3327,0.156722
830.2645,0.155335
831.1963,0.154553
832.1282,0.153717
833.0600,0.152089
833.9918,0.150989
834.9237,0.150551
835.8555,0.149472
836.7873,0.148006
837.7192,0.146426
838.6510,0.144853
839.5828,0.143948
840.5147,0.143266
841.4465,0.142759
842.3784,0.141972
843.3102,0.140738
844.2420,0.139951
845.1739,0.139035
846.1057,0.137786
847.0375,0.136030
847.9694,0.134702
848.9012,0.134295
849.8330,0.133871
850.7649,0.133288
851.6967,0.132565
852.6285,0.131090
853.5604,0.130007
854.4922,0.129529
855.4240,0.128270
856.3559,0.127560
857.2877,0.127346
858.2195,0.127292
859.1514,0.126244
860.0832,0.125601
861.0150,0.125285
861.9469,0.124663
862.8787,0.124866
863.8105,0.124997
864.7424,0.124433
865.6742,0.124591
866.6060,0.125402
867.5379,0.126120
868.4697,0.126377
869.4016,0.127017
870.3334,0.128600
871.2652,0.131153
872.1971,0.133273
873.1289,0.135160
874.0607,0.138387
874.9926,0.142139
875.9244,0.144662
876.8562,0.146677
877.7881,0.147477
878.7199,0.146425
879.6517,0.143833
880.5836,0.139874
881.5154,0.134961
882.4472,0.129634
883.3791,0.124062
884.3109,0.118764
885.2427,0.114201
886.1746,0.110097
887.1064,0.106885
888.0382,0.104772
888.9701,0.102493
889.9019,0.099896
890.8337,0.097644
891.7656,0.095760
892.6974,0.094409
893.6292,0.093580
894.5611,0.092056
895.4929,0.090548
896.4247,0.089315
897.3566,0.088333
898.2884,0.087848
899.2203,0.087041
900.1521,0.085896
901.0839,0.085260
902.0158,0.084385
902.9476,0.083351
903.8794,0.082858
904.8113,0.082206
905.7431,0.081431
906.6749,0.080943
907.6068,0.080133
908.5386,0.079460
909.4704,0.078850
910.4023,0.077933
911.3341,0.077326
912.2659,0.076631
913.1978,0.075651
914.1296,0.075056
915.0614,0.074490
915.9933,0.074234
916.9251,0.073808
917.8569,0.073049
918.7888,0.072371
919.7206,0.071615
920.6524,0.070999
921.5843,0.070584
922.5161,0.070107
923.4479,0.069670
924.3798,0.069086
925.3116,0.068392
926.2435,0.067779
927.1753,0.067465
928.1071,0.067004
929.0390,0.066648
929.9708,0.066561
930.9026,0.066187
931.8345,0.065625
932.7663,0.065434
933.6981,0.065064
934.6300,0.064390
935.5618,0.063833
936.4936,0.063802
937.4255,0.063593
938.3573,0.063148
939.2891,0.062973
940.2210,0.062683
941.1528,0.062103
942.0846,0.062096
943.0165,0.061931
943.9483,0.061148
944.8801,0.060991
945.8120,0.061157
946.7438,0.060719
947.6756,0.060337
948.6075,0.059874
949.5393,0.059883
950.4711,0.059655
951.4030,0.059633
952.3348,0.059519
953.2667,0.059219
954.1985,0.058986
955.1303,0.058915
956.0622,0.058748
956.9940,0.058263
957.9258,0.058038
958.8577,0.058065
959.7895,0.057855
960.7213,0.057620
961.6532,0.057733
962.5850,0.057270
963.5168,0.056648
964.4487,0.056727
965.3805,0.056768
966.3123,0.056359
967.2442,0.055813
968.1760,0.055624
969.1078,0.055596
970.0397,0.055309
970.9715,0.054833
971.9033,0.054478
972.8352,0.054250
973.7670,0.053803
974.6988,0.053246
975.6307,0.053003
976.5625,0.053062
977.4943,0.052708
978.4262,0.052054
979.3580,0.051695
980.2899,0.051289
981.2217,0.050985
982.1535,0.050799
983.0854,0.050266
984.0172,0.049686
984.9490,0.049398
985.8809,0.049051
986.8127,0.048378
987.7445,0.047770
988.6764,0.047494
989.6082,0.047307
990.5400,0.047144
991.4719,0.047266
992.4037,0.047542
993.3355,0.047495
994.2674,0.047263
995.1992,0.047131
996.1310,0.046999
997.0629,0.046996
997.9947,0.047452
998.9265,0.047928
999.8584,0.048046
1000.7902,0.047994
1001.7220,0.048125
1002.6539,0.048531
1003.5857,0.048998
1004.5175,0.049622
1005.4494,0.050000
1006.3812,0.050007
1007.3131,0.049999
1008.2449,0.050160
1009.1767,0.050463
1010.1086,0.050472
1011.0404,0.050716
1011.9722,0.051172
1012.9041,0.051574
1013.8359,0.052405
1014.7677,0.053259
1015.6996,0.053746
1016.6314,0.054266
1017.5632,0.054872
1018.4951,0.055690
1019.4269,0.056685
1020.3587,0.057484
1021.2906,0.058032
1022.2224,0.058983
1023.1542,0.060428
1024.0861,0.061718
1025.0179,0.063067
1025.9497,0.064939
1026.8816,0.067320
1027.8134,0.069414
1028.7452,0.071492
1029.6771,0.074262
1030.6089,0.077525
1031.5407,0.081119
1032.4726,0.085439
1033.4044,0.090655
1034.3362,0.096629
1035.2681,0.103432
1036.1999,0.111118
1037.1318,0.119708
1038.0636,0.129099
1038.9954,0.139346
1039.9273,0.150407
1040.8591,0.161377
1041.7909,0.171151
1042.7228,0.178782
1043.6546,0.183722
1044.5864,0.185560
1045.5183,0.183302
1046.4501,0.177170
1047.3819,0.168171
1048.3138,0.157125
1049.2456,0.145168
1050.1774,0.132898
1051.1093,0.120867
1052.0411,0.109792
1052.9729,0.099773
1053.9048,0.090660
1054.8366,0.082677
1055.7684,0.076187
1056.7003,0.070919
1057.6321,0.066596
1058.5639,0.063095
1059.4958,0.060272
1060.4276,0.058090
1061.3594,0.056583
1062.2913,0.055495
1063.2231,0.054671
1064.1550,0.054296
1065.0868,0.054167
1066.0186,0.054024
1066.9505,0.054161
1067.8823,0.054500
1068.8141,0.054868
1069.7460,0.055551
1070.6778,0.056631
1071.6096,0.057927
1072.5415,0.059204
1073.4733,0.060754
1074.4051,0.062363
1075.3370,0.063998
1076.2688,0.065928
1077.2006,0.067966
1078.1325,0.070244
1079.0643,0.072733
1079.9961,0.074899
1080.9280,0.076974
1081.8598,0.079245
1082.7916,0.081280
1083.7235,0.082518
1084.6553,0.083411
1085.5871,0.083965
1086.5190,0.083700
1087.4508,0.082719
1088.3826,0.081349
1089.3145,0.079555
1090.2463,0.076934
1091.1782,0.074082
1092.1100,0.071291
1093.0418,0.068069
1093.9737,0.064791
1094.9055,0.061912
1095.8373,0.059256
1096.7692,0.056984
1097.7010,0.054982
1098.6328,0.052776
1099.5647,0.050793
1100.4965,0.049400
1101.4283,0.048236
1102.3602,0.047081
1103.2920,0.046043
1104.2238,0.045114
1105.1557,0.044363
1106.0875,0.043914
1107.0193,0.043488
1107.9512,0.042895
1108.8830,0.042276
1109.8148,0.042016
1110.7467,0.041770
1111.6785,0.041473
1112.6103,0.041257
1113.5422,0.041071
1114.4740,0.041146
1115.4058,0.041188
1116.3377,0.040937
1117.2695,0.040849
1118.2014,0.040894
1119.1332,0.040829
1120.0650,0.040691
1120.9969,0.040535
1121.9287,0.040806
1122.8605,0.041051
1123.7924,0.040832
1124.7242,0.040751
1125.6560,0.040877
1126.5879,0.040827
1127.5197,0.040739
1128.4515,0.040564
1129.3834,0.040303
1130.3152,0.040105
1131.2470,0.039995
1132.1789,0.040087
1133.1107,0.040167
1134.0425,0.040173
1134.9744,0.040059
1135.9062,0.039890
1136.8380,0.039872
1137.7699,0.039711
1138.7017,0.039510
1139.6335,0.039526
1140.5654,0.039818
1141.4972,0.039980
1142.4290,0.039765
1143.3609,0.039653
1144.2927,0.039759
1145.2246,0.039803
1146.1564,0.039691
1147.0882,0.039982
1148.0201,0.040471
1148.9519,0.040522
1149.8837,0.040482
1150.8156,0.040579
1151.7474,0.040675
1152.6792,0.040828
1153.6111,0.040860
1154.5429,0.040904
1155.4747,0.041099
1156.4066,0.041247
1157.3384,0.041335
1158.2702,0.041221
1159.2021,0.040992
1160.1339,0.040974
1161.0657,0.041056
1161.9976,0.041094
1162.9294,0.041019
1163.8612,0.040711
1164.7931,0.040591
1165.7249,0.040794
1166.6567,0.040861
1167.5886,0.040667
1168.5204,0.040436
1169.4522,0.040446
1170.3841,0.040524
1171.3159,0.040582
1172.2477,0.040685
1173.1796,0.040630
1174.1114,0.040660
1175.0433,0.040786
1175.9751,0.040770
1176.9069,0.040885
1177.8388,0.040812
1178.7706,0.040624
1179.7024,0.040694
1180.6343,0.040695
1181.5661,0.040785
1182.4979,0.040884
1183.4298,0.040782
1184.3616,0.040734
1185.2934,0.040736
1186.2253,0.040737
1187.1571,0.040741
1188.0889,0.040749
1189.0208,0.040710
1189.9526,0.040571
1190.8844,0.040628
1191.8163,0.040891
1192.7481,0.040906
1193.6799,0.040771
1194.6118,0.040637
1195.5436,0.040522
1196.4754,0.040619
1197.4073,0.040836
1198.3391,0.040856
1199.2709,0.040854
1200.2028,0.040881
1201.1346,0.040728
1202.0665,0.040608
1202.9983,0.040626
1203.9301,0.040736
1204.8620,0.040871
1205.7938,0.040993
1206.7256,0.041004
1207.6575,0.040940
1208.5893,0.040984
1209.5211,0.040865
1210.4530,0.040758
1211.3848,0.040881
1212.3166,0.040876
1213.2485,0.040693
1214.1803,0.040705
1215.1121,0.040962
1216.0440,0.041169
1216.9758,0.041307
1217.9076,0.041083
1218.8395,0.040881
1219.7713,0.041158
1220.7031,0.041236
1221.6350,0.041061
1222.5668,0.041009
1223.4986,0.041158
1224.4305,0.041369
1225.3623,0.041425
1226.2941,0.041324
1227.2260,0.041220
1228.1578,0.041282
1229.0897,0.041344
1230.0215,0.041551
1230.9533,0.041635
1231.8852,0.041293
1232.8170,0.041287
1233.7488,0.041706
1234.6807,0.041822
1235.6125,0.041725
1236.5443,0.041937
1237.4762,0.042119
1238.4080,0.042110
1239.3398,0.042096
1240.2717,0.042130
1241.2035,0.042393
1242.1353,0.042510
1243.0672,0.042310
1243.9990,0.042135
1244.9308,0.042196
1245.8627,0.042348
1246.7945,0.042460
1247.7263,0.042781
1248.6582,0.042895
1249.5900,0.042791
1250.5218,0.043034
1251.4537,0.043217
1252.3855,0.043225
1253.3173,0.043463
1254.2492,0.043649
1255.1810,0.043727
1256.1129,0.044111
1257.0447,0.044516
1257.9765,0.044622
1258.9084,0.044745
1259.8402,0.045184
1260.7720,0.045561
1261.7039,0.045710
1262.6357,0.045930
1263.5675,0.046317
1264.4994,0.046716
1265.4312,0.047132
1266.3630,0.047754
1267.2949,0.048175
1268.2267,0.048258
1269.1585,0.048517
1270.0904,0.049001
1271.0222,0.049413
1271.9540,0.049877
1272.8859,0.050311
1273.8177,0.050319
1274.7495,0.050246
1275.6814,0.050171
1276.6132,0.050073
1277.5450,0.050175
1278.4769,0.050039
1279.4087,0.049700
1280.3405,0.049409
1281.2724,0.048946
1282.2042,0.048471
1283.1361,0.048245
1284.0679,0.048134
1284.9997,0.047978
1285.9316,0.047691
1286.8634,0.047483
1287.7952,0.047541
1288.7271,0.047606
1289.6589,0.047476
1290.5907,0.047442
1291.5226,0.047529
1292.4544,0.047555
1293.3862,0.047624
1294.3181,0.047716
1295.2499,0.047861
1296.1817,0.047853
1297.1136,0.047979
1298.0454,0.048475
1298.9772,0.048432
1299.9091,0.048108
1300.8409,0.048270
1301.7727,0.048527
1302.7046,0.048716
1303.6364,0.048871
1304.5682,0.049043
1305.5001,0.049190
1306.4319,0.049432
1307.3637,0.049970
1308.2956,0.050234
1309.2274,0.050140
1310.1592,0.050166
1311.0911,0.050166
1312.0229,0.050257
1312.9548,0.050612
1313.8866,0.051060
1314.8184,0.051134
1315.7503,0.051036
1316.6821,0.050962
1317.6139,0.050996
1318.5458,0.051260
1319.4776,0.051591
1320.4094,0.051890
1321.3413,0.051997
1322.2731,0.052125
1323.2049,0.052114
1324.1368,0.051951
1325.0686,0.051908
1326.0004,0.051811
1326.9323,0.051701
1327.8641,0.051814
1328.7959,0.051970
1329.7278,0.051817
1330.6596,0.051594
1331.5914,0.051496
1332.5233,0.051244
1333.4551,0.050807
1334.3869,0.050520
1335.3188,0.050315
1336.2506,0.049943
1337.1824,0.049763
1338.1143,0.050040
1339.0461,0.050086
1339.9780,0.050000
1340.9098,0.050154
1341.8416,0.050156
1342.7735,0.049576
1343.7053,0.048779
1344.6371,0.048238
1345.5690,0.047992
1346.5008,0.047936
1347.4326,0.047743
1348.3645,0.047516
1349.2963,0.047555
1350.2281,0.047472
1351.1600,0.047333
1352.0918,0.047177
1353.0236,0.046834
1353.9555,0.046666
1354.8873,0.046538
1355.8191,0.046646
1356.7510,0.046961
1357.6828,0.046760
1358.6146,0.046340
1359.5465,0.046005
1360.4783,0.045733
1361.4101,0.045921
1362.3420,0.046743
1363.2738,0.047631
1364.2056,0.048544
1365.1375,0.048444
1366.0693,0.047463
1367.0012,0.047200
1367.9330,0.047415
1368.8648,0.047949
1369.7967,0.048769
1370.7285,0.049265
1371.6603,0.049509
1372.5922,0.050212
1373.5240,0.051094
1374.4558,0.052590
1375.3877,0.054782
1376.3195,0.055790
1377.2513,0.055507
1378.1832,0.055440
1379.1150,0.056067
1380.0468,0.056853
1380.9787,0.057340
1381.9105,0.057528
1382.8423,0.057575
1383.7742,0.057657
1384.7060,0.057651
1385.6378,0.057607
1386.5697,0.057613
1387.5015,0.057722
1388.4333,0.058482
1389.3652,0.058742
1390.2970,0.057628
1391.2288,0.056652
1392.1607,0.056141
1393.0925,0.055399
1394.0244,0.054712
1394.9562,0.055141
1395.8880,0.056760
1396.8199,0.056970
1397.7517,0.055785
1398.6835,0.055416
1399.6154,0.056240
1400.5472,0.057219
1401.4790,0.056685
1402.4109,0.055640
1403.3427,0.055251
1404.2745,0.055278
1405.2064,0.055918
1406.1382,0.057354
1407.0700,0.057581
1408.0019,0.056582
1408.9337,0.056430
1409.8655,0.056745
1410.7974,0.056836
1411.7292,0.057114
1412.6610,0.057189
1413.5929,0.057042
1414.5247,0.056492
1415.4565,0.055762
1416.3884,0.055414
1417.3202,0.055626
1418.2520,0.056186
1419.1839,0.056852
1420.1157,0.058517
1421.0476,0.059479
1421.9794,0.057222
1422.9112,0.055664
1423.8431,0.055405
1424.7749,0.055890
1425.7067,0.056289
1426.6386,0.055324
1427.5704,0.054427
1428.5022,0.054134
1429.4341,0.053637
1430.3659,0.053518
1431.2977,0.053900
1432.2296,0.053611
1433.1614,0.052355
1434.0932,0.051132
1435.0251,0.050552
1435.9569,0.050283
1436.8887,0.050894
1437.8206,0.053568
1438.7524,0.054060
1439.6842,0.051923
1440.6161,0.050842
1441.5479,0.050749
1442.4797,0.050740
1443.4116,0.050810
1444.3434,0.050845
1445.2752,0.051169
1446.2071,0.051572
1447.1389,0.052032
1448.0707,0.052889
1449.0026,0.054782
1449.9344,0.055918
1450.8663,0.055406
1451.7981,0.055104
1452.7299,0.055476
1453.6618,0.055825
1454.5936,0.054754
1455.5254,0.053342
1456.4573,0.053569
1457.3891,0.054755
1458.3209,0.056140
1459.2528,0.055748
1460.1846,0.054165
1461.1164,0.051804
1462.0483,0.049307
1462.9801,0.047674
1463.9119,0.046765
1464.8438,0.046216
1465.7756,0.046502
1466.7074,0.047101
1467.6393,0.045961
1468.5711,0.044839
1469.5029,0.044081
1470.4348,0.043592
1471.3666,0.043310
1472.2984,0.043043
1473.2303,0.044852
1474.1621,0.046946
1475.0939,0.046919
1476.0258,0.045704
1476.9576,0.045309
1477.8895,0.046526
1478.8213,0.046205
1479.7531,0.045344
1480.6850,0.045282
1481.6168,0.045765
1482.5486,0.046527
1483.4805,0.046656
1484.4123,0.045939
1485.3441,0.045464
1486.2760,0.044937
1487.2078,0.044674
1488.1396,0.045376
1489.0715,0.045916
1490.0033,0.045588
1490.9351,0.046322
1491.8670,0.046973
1492.7988,0.045978
1493.7306,0.044429
1494.6625,0.043337
1495.5943,0.042791
1496.5261,0.043021
1497.4580,0.045251
1498.3898,0.045533
1499.3216,0.044344
1500.2535,0.045058
1501.1853,0.044578
1502.1171,0.043272
1503.0490,0.043110
1503.9808,0.042516
1504.9127,0.041181
1505.8445,0.040401
1506.7763,0.042309
1507.7082,0.046903
1508.6400,0.048883
1509.5718,0.048138
1510.5037,0.046126
1511.4355,0.044686
1512.3673,0.043947
1513.2992,0.044062
1514.2310,0.044229
1515.1628,0.043284
1516.0947,0.043085
1517.0265,0.043794
1517.9583,0.044554
1518.8902,0.045868
1519.8220,0.044583
1520.7538,0.043120
1521.6857,0.044404
1522.6175,0.047562
1523.5493,0.047530
1524.4812,0.045913
1525.4130,0.045031
1526.3448,0.045601
1527.2767,0.046212
1528.2085,0.045569
1529.1403,0.045820
1530.0722,0.046216
1531.0040,0.045419
1531.9359,0.044952
1532.8677,0.045748
1533.7995,0.046537
1534.7314,0.047742
1535.6632,0.048121
1536.5950,0.046473
1537.5269,0.045135
1538.4587,0.043959
1539.3905,0.042965
1540.3224,0.045187
1541.2542,0.049779
1542.1860,0.049815
1543.1179,0.049892
1544.0497,0.050464
1544.9815,0.049375
1545.9134,0.049345
1546.8452,0.050311
1547.7770,0.049619
1548.7089,0.048718
1549.6407,0.048497
1550.5725,0.048967
1551.5044,0.050455
1552.4362,0.050303
1553.3680,0.049266
1554.2999,0.048635
1555.2317,0.049246
1556.1635,0.050787
1557.0954,0.049395
1558.0272,0.047797
1558.9591,0.050959
1559.8909,0.058622
1560.8227,0.060327
1561.7546,0.058741
1562.6864,0.055500
1563.6182,0.053282
1564.5501,0.052708
1565.4819,0.053332
1566.4137,0.054773
1567.3456,0.054979
1568.2774,0.054495
1569.2092,0.054612
1570.1411,0.056365
1571.0729,0.059815
1572.0047,0.059558
1572.9366,0.057485
1573.8684,0.056976
1574.8002,0.057320
1575.7321,0.057446
1576.6639,0.059199
1577.5957,0.064113
1578.5276,0.064890
1579.4594,0.063299
1580.3912,0.062583
1581.3231,0.062897
1582.2549,0.063663
1583.1867,0.064472
1584.1186,0.065315
1585.0504,0.066305
1585.9822,0.066939
1586.9141,0.067344
1587.8459,0.068557
1588.7778,0.070000
1589.7096,0.071171
1590.6414,0.071990
1591.5733,0.072885
1592.5051,0.074128
1593.4369,0.074909
1594.3688,0.075658
1595.3006,0.077014
1596.2324,0.078872
1597.1643,0.080234
