Wavenumber,Intensity
650.4205,0.381732
651.3523,0.402458
652.2841,0.408925
653.2160,0.407427
654.1478,0.392059
655.0796,0.394288
656.0115,0.388366
656.9433,0.385402
657.8751,0.387040
658.8070,0.386833
659.7388,0.390744
660.6706,0.394761
661.6025,0.379981
662.5343,0.379495
663.4661,0.381234
664.3980,0.380011
665.3298,0.373380
666.2616,0.372305
667.1935,0.374060
668.1253,0.387819
669.0571,0.384846
669.9890,0.374584
670.9208,0.373385
671.8526,0.372358
672.7845,0.372339
673.7163,0.376088
674.6481,0.373839
675.5800,0.369267
676.5118,0.366571
677.4437,0.364303
678.3755,0.360768
679.3073,0.363638
680.2392,0.367335
681.1710,0.362589
682.1028,0.358549
683.0347,0.358405
683.9665,0.356400
684.8983,0.357757
685.8302,0.353017
686.7620,0.346503
687.6938,0.346439
688.6257,0.350091
689.5575,0.348249
690.4893,0.346428
691.4212,0.344054
692.3530,0.346246
693.2848,0.345034
694.2167,0.343018
695.1485,0.339232
696.0803,0.339264
697.0122,0.339221
697.9440,0.338082
698.8758,0.337382
699.8077,0.336888
700.7395,0.335199
701.6713,0.334580
702.6032,0.331170
703.5350,0.329238
704.4669,0.328398
705.3987,0.328339
706.3305,0.326465
707.2624,0.327896
708.1942,0.326181
709.1260,0.321993
710.0579,0.319148
710.9897,0.316889
711.9215,0.313421
712.8534,0.315189
713.7852,0.317771
714.7170,0.317169
715.6489,0.316174
716.5807,0.314769
717.5125,0.312059
718.4444,0.310088
719.3762,0.308729
720.3080,0.312800
721.2399,0.310674
722.1717,0.307917
723.1035,0.305073
724.0354,0.301022
724.9672,0.300453
725.8990,0.298490
726.8309,0.294577
727.7627,0.293586
728.6945,0.292393
729.6264,0.291526
730.5582,0.289046
731.4901,0.286932
732.4219,0.286381
733.3537,0.287095
734.2856,0.284705
735.2174,0.283476
736.1492,0.282888
737.0811,0.282939
738.0129,0.282811
738.9447,0.281018
739.8766,0.278859
740.8084,0.278741
741.7402,0.277497
742.6721,0.275943
743.6039,0.274598
744.5357,0.274817
745.4676,0.273027
746.3994,0.270366
747.3312,0.266656
748.2631,0.264457
749.1949,0.265015
750.1267,0.266794
751.0586,0.263061
751.9904,0.261680
752.9222,0.260710
753.8541,0.258259
754.7859,0.257583
755.7177,0.258189
756.6496,0.255539
757.5814,0.252837
758.5132,0.251783
759.4451,0.251355
760.3769,0.249373
761.3088,0.246968
762.2406,0.246861
763.1724,0.245835
764.1043,0.242161
765.0361,0.242305
765.9679,0.241926
766.8998,0.239388
767.8316,0.237805
768.7634,0.238022
769.6953,0.237733
770.6271,0.237923
771.5589,0.237637
772.4908,0.235965
773.4226,0.234008
774.3544,0.232371
775.2863,0.230788
776.2181,0.229270
777.1499,0.227687
778.0818,0.227133
779.0136,0.227273
779.9454,0.226075
780.8773,0.221980
781.8091,0.219910
782.7409,0.220432
783.6728,0.218909
784.6046,0.216591
785.5364,0.215304
786.4683,0.214530
787.4001,0.213189
788.3320,0.210731
789.2638,0.209422
790.1956,0.207303
791.1275,0.206662
792.0593,0.206268
792.9911,0.204318
793.9230,0.202673
794.8548,0.202140
795.7866,0.201174
796.7185,0.200763
797.6503,0.200011
798.5821,0.199021
799.5140,0.197840
800.4458,0.197069
801.3776,0.194492
802.3095,0.193313
803.2413,0.192570
804.1731,0.191044
805.1050,0.190188
806.0368,0.188815
806.9686,0.187152
807.9005,0.186936
808.8323,0.185172
809.7641,0.182060
810.6960,0.180756
811.6278,0.180828
812.5596,0.179674
813.4915,0.178258
814.4233,0.177505
815.3552,0.176262
816.2870,0.174653
817.2188,0.173284
818.1507,0.172187
819.0825,0.170922
820.0143,0.168882
820.9462,0.167124
821.8780,0.165563
822.8098,0.165346
823.7417,0.164700
824.6735,0.163229
825.6053,0.162213
826.5372,0.161229
827.4690,0.159992
828.4008,0.158831
829.3327,0.157134
830.2645,0.156307
831.1963,0.155216
832.1282,0.153736
833.0600,0.152936
833.9918,0.152597
834.9237,0.151693
835.8555,0.150171
836.7873,0.148650
837.7192,0.147416
838.6510,0.146433
839.5828,0.146225
840.5147,0.145425
841.4465,0.144152
842.3784,0.142635
843.3102,0.141570
844.2420,0.140946
845.1739,0.140065
846.1057,0.138751
847.0375,0.138439
847.9694,0.137563
848.9012,0.137113
849.8330,0.136837
850.7649,0.136351
851.6967,0.134763
852.6285,0.133064
853.5604,0.132563
854.4922,0.132128
855.4240,0.131234
856.3559,0.130142
857.2877,0.129454
858.2195,0.129394
859.1514,0.129020
860.0832,0.128880
861.0150,0.128547
861.9469,0.128044
862.8787,0.127748
863.8105,0.127906
864.7424,0.128429
865.6742,0.129104
866.6060,0.129584
867.5379,0.130618
868.4697,0.131283
869.4016,0.132641
870.3334,0.135155
871.2652,0.138115
872.1971,0.141932
873.1289,0.145817
874.0607,0.149666
874.9926,0.154670
875.9244,0.158587
876.8562,0.159795
877.7881,0.159895
878.7199,0.158756
879.6517,0.155651
880.5836,0.151483
881.5154,0.145550
882.4472,0.138527
883.3791,0.132522
884.3109,0.127194
885.2427,0.121597
886.1746,0.116513
887.1064,0.112197
888.0382,0.108846
888.9701,0.105451
889.9019,0.102302
890.8337,0.099645
891.7656,0.097529
892.6974,0.095750
893.6292,0.094276
894.5611,0.093332
895.4929,0.092549
896.4247,0.091488
897.3566,0.090256
898.2884,0.089025
899.2203,0.088155
900.1521,0.087451
901.0839,0.086924
902.0158,0.086338
902.9476,0.085716
903.8794,0.084747
904.8113,0.083751
905.7431,0.083006
906.6749,0.082365
907.6068,0.081641
908.5386,0.080992
909.4704,0.080572
910.4023,0.080153
911.3341,0.079274
912.2659,0.078755
913.1978,0.078369
914.1296,0.077520
915.0614,0.077126
915.9933,0.076908
916.9251,0.076275
917.8569,0.075957
918.7888,0.075421
919.7206,0.074898
920.6524,0.074556
921.5843,0.074178
922.5161,0.073926
923.4479,0.073693
924.3798,0.073413
925.3116,0.072712
926.2435,0.071972
927.1753,0.071249
928.1071,0.070700
929.0390,0.070370
929.9708,0.070076
930.9026,0.069752
931.8345,0.069267
932.7663,0.068504
933.6981,0.068122
934.6300,0.068156
935.5618,0.067909
936.4936,0.067370
937.4255,0.066967
938.3573,0.066393
939.2891,0.065741
940.2210,0.065647
941.1528,0.065524
942.0846,0.065284
943.0165,0.065320
943.9483,0.064864
944.8801,0.064062
945.8120,0.063768
946.7438,0.063611
947.6756,0.063164
948.6075,0.062789
949.5393,0.062555
950.4711,0.062415
951.4030,0.062133
952.3348,0.061726
953.2667,0.061465
954.1985,0.061500
955.1303,0.061387
956.0622,0.061193
956.9940,0.060753
957.9258,0.060298
958.8577,0.060194
959.7895,0.060009
960.7213,0.059934
961.6532,0.059624
962.5850,0.059489
963.5168,0.059641
964.4487,0.059470
965.3805,0.059280
966.3123,0.059457
967.2442,0.059207
968.1760,0.058761
969.1078,0.058858
970.0397,0.059049
970.9715,0.058778
971.9033,0.058164
972.8352,0.057960
973.7670,0.058219
974.6988,0.058504
975.6307,0.058611
976.5625,0.058709
977.4943,0.058696
978.4262,0.058438
979.3580,0.058814
980.2899,0.059290
981.2217,0.059173
982.1535,0.058923
983.0854,0.059067
984.0172,0.059450
984.9490,0.059588
985.8809,0.059637
986.8127,0.059892
987.7445,0.060372
988.6764,0.060730
989.6082,0.060709
990.5400,0.060605
991.4719,0.060847
992.4037,0.061203
993.3355,0.061180
994.2674,0.061176
995.1992,0.061261
996.1310,0.061379
997.0629,0.061486
997.9947,0.061571
998.9265,0.061574
999.8584,0.061757
1000.7902,0.062131
1001.7220,0.062215
1002.6539,0.062123
1003.5857,0.062352
1004.5175,0.062876
1005.4494,0.063185
1006.3812,0.063472
1007.3131,0.064071
1008.2449,0.064439
1009.1767,0.064661
1010.1086,0.065225
1011.0404,0.066009
1011.9722,0.066684
1012.9041,0.067463
1013.8359,0.068542
1014.7677,0.069268
1015.6996,0.069775
1016.6314,0.070517
1017.5632,0.071377
1018.4951,0.072665
1019.4269,0.074337
1020.3587,0.075734
1021.2906,0.076865
1022.2224,0.078718
1023.1542,0.081193
1024.0861,0.083476
1025.0179,0.085627
1025.9497,0.088036
1026.8816,0.091204
1027.8134,0.095025
1028.7452,0.098739
1029.6771,0.102580
1030.6089,0.107140
1031.5407,0.112485
1032.4726,0.118649
1033.4044,0.125659
1034.3362,0.133680
1035.2681,0.143020
1036.1999,0.153387
1037.1318,0.164577
1038.0636,0.176978
1038.9954,0.190252
1039.9273,0.203338
1040.8591,0.215376
1041.7909,0.225968
1042.7228,0.234026
1043.6546,0.238409
1044.5864,0.238711
1045.5183,0.234817
1046.4501,0.227068
1047.3819,0.216305
1048.3138,0.203583
1049.2456,0.189479
1050.1774,0.174900
1051.1093,0.160815
1052.0411,0.147547
1052.9729,0.135442
1053.9048,0.124439
1054.8366,0.114706
1055.7684,0.106593
1056.7003,0.099877
1057.6321,0.094271
1058.5639,0.089689
1059.4958,0.086040
1060.4276,0.082937
1061.3594,0.080615
1062.2913,0.078978
1063.2231,0.077666
1064.1550,0.076917
1065.0868,0.076695
1066.0186,0.076776
1066.9505,0.076661
1067.8823,0.076699
1068.8141,0.077345
1069.7460,0.078123
1070.6778,0.079228
1071.6096,0.080553
1072.5415,0.081729
1073.4733,0.083382
1074.4051,0.085516
1075.3370,0.087721
1076.2688,0.090030
1077.2006,0.092570
1078.1325,0.095160
1079.0643,0.097746
1079.9961,0.100304
1080.9280,0.102529
1081.8598,0.104599
1082.7916,0.106386
1083.7235,0.107668
1084.6553,0.108338
1085.5871,0.108244
1086.5190,0.107467
1087.4508,0.106123
1088.3826,0.104082
1089.3145,0.100932
1090.2463,0.097078
1091.1782,0.093342
1092.1100,0.089591
1093.0418,0.085522
1093.9737,0.081607
1094.9055,0.077945
1095.8373,0.074565
1096.7692,0.071500
1097.7010,0.068750
1098.6328,0.066554
1099.5647,0.064538
1100.4965,0.062607
1101.4283,0.061048
1102.3602,0.059706
1103.2920,0.058543
1104.2238,0.057696
1105.1557,0.056798
1106.0875,0.055830
1107.0193,0.055113
1107.9512,0.054601
1108.8830,0.054210
1109.8148,0.053856
1110.7467,0.053423
1111.6785,0.052919
1112.6103,0.052382
1113.5422,0.051922
1114.4740,0.051694
1115.4058,0.051558
1116.3377,0.051275
1117.2695,0.050874
1118.2014,0.050715
1119.1332,0.050766
1120.0650,0.050621
1120.9969,0.050498
1121.9287,0.050471
1122.8605,0.050292
1123.7924,0.050281
1124.7242,0.050397
1125.6560,0.050275
1126.5879,0.050107
1127.5197,0.050032
1128.4515,0.049906
1129.3834,0.049698
1130.3152,0.049614
1131.2470,0.049534
1132.1789,0.049390
1133.1107,0.049333
1134.0425,0.049228
1134.9744,0.049076
1135.9062,0.048876
1136.8380,0.048728
1137.7699,0.048702
1138.7017,0.048544
1139.6335,0.048371
1140.5654,0.048336
1141.4972,0.048192
1142.4290,0.048013
1143.3609,0.047714
1144.2927,0.047468
1145.2246,0.047662
1146.1564,0.047680
1147.0882,0.047414
1148.0201,0.047543
1148.9519,0.047791
1149.8837,0.047610
1150.8156,0.047216
1151.7474,0.047151
1152.6792,0.047222
1153.6111,0.047214
1154.5429,0.047395
1155.4747,0.047438
1156.4066,0.047146
1157.3384,0.046857
1158.2702,0.046636
1159.2021,0.046396
1160.1339,0.046289
1161.0657,0.046230
1161.9976,0.045989
1162.9294,0.045493
1163.8612,0.045023
1164.7931,0.044813
1165.7249,0.044633
1166.6567,0.044350
1167.5886,0.044061
1168.5204,0.043943
1169.4522,0.043867
1170.3841,0.043557
1171.3159,0.043255
1172.2477,0.043303
1173.1796,0.043163
1174.1114,0.042919
1175.0433,0.043088
1175.9751,0.043162
1176.9069,0.042997
1177.8388,0.043016
1178.7706,0.043127
1179.7024,0.043090
1180.6343,0.042922
1181.5661,0.042865
1182.4979,0.043072
1183.4298,0.043230
1184.3616,0.043215
1185.2934,0.043043
1186.2253,0.042836
1187.1571,0.042738
1188.0889,0.042747
1189.0208,0.042840
1189.9526,0.042866
1190.8844,0.043020
1191.8163,0.043108
1192.7481,0.043093
1193.6799,0.043065
1194.6118,0.043106
1195.5436,0.043139
1196.4754,0.042944
1197.4073,0.042853
1198.3391,0.043004
1199.2709,0.043249
1200.2028,0.043366
1201.1346,0.043152
1202.0665,0.042916
1202.9983,0.042840
1203.9301,0.042917
1204.8620,0.043130
1205.7938,0.043304
1206.7256,0.043293
1207.6575,0.043008
1208.5893,0.042989
1209.5211,0.043355
1210.4530,0.043396
1211.3848,0.043265
1212.3166,0.043356
1213.2485,0.043359
1214.1803,0.043408
1215.1121,0.043607
1216.0440,0.043631
1216.9758,0.043383
1217.9076,0.043361
1218.8395,0.043644
1219.7713,0.043781
1220.7031,0.043828
1221.6350,0.043995
1222.5668,0.044034
1223.4986,0.044017
1224.4305,0.044097
1225.3623,0.044260
1226.2941,0.044254
1227.2260,0.044207
1228.1578,0.044273
1229.0897,0.044344
1230.0215,0.044612
1230.9533,0.044808
1231.8852,0.044789
1232.8170,0.044648
1233.7488,0.044684
1234.6807,0.044719
1235.6125,0.044814
1236.5443,0.045154
1237.4762,0.045314
1238.4080,0.045026
1239.3398,0.044901
1240.2717,0.045140
1241.2035,0.045478
1242.1353,0.045691
1243.0672,0.045706
1243.9990,0.045788
1244.9308,0.045986
1245.8627,0.046056
1246.7945,0.046113
1247.7263,0.046322
1248.6582,0.046416
1249.5900,0.046570
1250.5218,0.046958
1251.4537,0.047355
1252.3855,0.047530
1253.3173,0.047638
1254.2492,0.047745
1255.1810,0.048059
1256.1129,0.048282
1257.0447,0.048459
1257.9765,0.048743
1258.9084,0.048880
1259.8402,0.049209
1260.7720,0.049725
1261.7039,0.050211
1262.6357,0.050495
1263.5675,0.050592
1264.4994,0.050891
1265.4312,0.051675
1266.3630,0.052370
1267.2949,0.052634
1268.2267,0.052874
1269.1585,0.053446
1270.0904,0.054069
1271.0222,0.054691
1271.9540,0.055250
1272.8859,0.055518
1273.8177,0.055461
1274.7495,0.055633
1275.6814,0.055854
1276.6132,0.055498
1277.5450,0.054896
1278.4769,0.054564
1279.4087,0.054169
1280.3405,0.053647
1281.2724,0.053036
1282.2042,0.052593
1283.1361,0.052303
1284.0679,0.052115
1284.9997,0.051905
1285.9316,0.051891
1286.8634,0.051971
1287.7952,0.052150
1288.7271,0.052072
1289.6589,0.051803
1290.5907,0.051572
1291.5226,0.051375
1292.4544,0.051519
1293.3862,0.051695
1294.3181,0.051887
1295.2499,0.052065
1296.1817,0.052127
1297.1136,0.052365
1298.0454,0.052721
1298.9772,0.052939
1299.9091,0.053001
1300.8409,0.053109
1301.7727,0.053262
1302.7046,0.053360
1303.6364,0.053632
1304.5682,0.054033
1305.5001,0.054314
1306.4319,0.054593
1307.3637,0.054805
1308.2956,0.055137
1309.2274,0.055633
1310.1592,0.056035
1311.0911,0.055976
1312.0229,0.055923
1312.9548,0.056301
1313.8866,0.056793
1314.8184,0.057011
1315.7503,0.056913
1316.6821,0.056942
1317.6139,0.057412
1318.5458,0.057692
1319.4776,0.057737
1320.4094,0.057926
1321.3413,0.058104
1322.2731,0.058156
1323.2049,0.058008
1324.1368,0.058136
1325.0686,0.058323
1326.0004,0.058198
1326.9323,0.058215
1327.8641,0.058270
1328.7959,0.058190
1329.7278,0.058132
1330.6596,0.057932
1331.5914,0.057733
1332.5233,0.057445
1333.4551,0.057370
1334.3869,0.057167
1335.3188,0.056713
1336.2506,0.056461
1337.1824,0.056428
1338.1143,0.056214
1339.0461,0.056075
1339.9780,0.056583
1340.9098,0.056692
1341.8416,0.056157
1342.7735,0.055324
1343.7053,0.054691
1344.6371,0.054504
1345.5690,0.054097
1346.5008,0.053801
1347.4326,0.053696
1348.3645,0.053368
1349.2963,0.053205
1350.2281,0.053175
1351.1600,0.052922
1352.0918,0.052690
1353.0236,0.052651
1353.9555,0.052810
1354.8873,0.052889
1355.8191,0.052710
1356.7510,0.052427
1357.6828,0.052319
1358.6146,0.052265
1359.5465,0.051897
1360.4783,0.051644
1361.4101,0.052005
1362.3420,0.052756
1363.2738,0.053325
1364.2056,0.053697
1365.1375,0.053663
1366.0693,0.053327
1367.0012,0.053604
1367.9330,0.054235
1368.8648,0.054699
1369.7967,0.055543
1370.7285,0.056136
1371.6603,0.056471
1372.5922,0.057325
1373.5240,0.058593
1374.4558,0.060582
1375.3877,0.062732
1376.3195,0.063533
1377.2513,0.063776
1378.1832,0.063980
1379.1150,0.064534
1380.0468,0.064859
1380.9787,0.065221
1381.9105,0.065888
1382.8423,0.066200
1383.7742,0.066452
1384.7060,0.066168
1385.6378,0.065850
1386.5697,0.066010
1387.5015,0.066412
1388.4333,0.066794
1389.3652,0.066442
1390.2970,0.064804
1391.2288,0.063904
1392.1607,0.063397
1393.0925,0.062827
1394.0244,0.062472
1394.9562,0.062870
1395.8880,0.063401
1396.8199,0.063245
1397.7517,0.063001
1398.6835,0.063274
1399.6154,0.064372
1400.5472,0.064920
1401.4790,0.063829
1402.4109,0.063264
1403.3427,0.063624
1404.2745,0.064138
1405.2064,0.064742
1406.1382,0.065726
1407.0700,0.065756
1408.0019,0.065234
1408.9337,0.065049
1409.8655,0.064990
1410.7974,0.065438
1411.7292,0.066104
1412.6610,0.066176
1413.5929,0.066033
1414.5247,0.065918
1415.4565,0.065551
1416.3884,0.065211
1417.3202,0.065484
1418.2520,0.065652
1419.1839,0.066284
1420.1157,0.067420
1421.0476,0.067707
1421.9794,0.066061
1422.9112,0.064986
1423.8431,0.064645
1424.7749,0.065037
1425.7067,0.064752
1426.6386,0.063564
1427.5704,0.063014
1428.5022,0.062773
1429.4341,0.062855
1430.3659,0.063006
1431.2977,0.062860
1432.2296,0.061834
1433.1614,0.060864
1434.0932,0.060218
1435.0251,0.059643
1435.9569,0.059212
1436.8887,0.059810
1437.8206,0.061655
1438.7524,0.060729
1439.6842,0.058658
1440.6161,0.058116
1441.5479,0.058299
1442.4797,0.058008
1443.4116,0.057933
1444.3434,0.058487
1445.2752,0.059043
1446.2071,0.059488
1447.1389,0.060185
1448.0707,0.061343
1449.0026,0.063212
1449.9344,0.064080
1450.8663,0.063754
1451.7981,0.063818
1452.7299,0.063982
1453.6618,0.063602
1454.5936,0.062930
1455.5254,0.062405
1456.4573,0.062430
1457.3891,0.063056
1458.3209,0.063369
1459.2528,0.061594
1460.1846,0.059806
1461.1164,0.057270
1462.0483,0.054974
1462.9801,0.053433
1463.9119,0.052588
1464.8438,0.052351
1465.7756,0.052621
1466.7074,0.051802
1467.6393,0.049919
1468.5711,0.048977
1469.5029,0.048368
1470.4348,0.047697
1471.3666,0.047391
1472.2984,0.047946
1473.2303,0.049221
1474.1621,0.049484
1475.0939,0.048766
1476.0258,0.048023
1476.9576,0.048161
1477.8895,0.048831
1478.8213,0.048248
1479.7531,0.047724
1480.6850,0.047818
1481.6168,0.048070
1482.5486,0.048385
1483.4805,0.048286
1484.4123,0.048048
1485.3441,0.047593
1486.2760,0.047378
1487.2078,0.047643
1488.1396,0.047967
1489.0715,0.047670
1490.0033,0.047152
1490.9351,0.048011
1491.8670,0.047560
1492.7988,0.045577
1493.7306,0.043832
1494.6625,0.043185
1495.5943,0.043424
1496.5261,0.043889
1497.4580,0.044684
1498.3898,0.044659
1499.3216,0.044267
1500.2535,0.044549
1501.1853,0.043503
1502.1171,0.042810
1503.0490,0.042797
1503.9808,0.042209
1504.9127,0.041762
1505.8445,0.042216
1506.7763,0.044251
1507.7082,0.046696
1508.6400,0.046214
1509.5718,0.045148
1510.5037,0.044124
1511.4355,0.043096
1512.3673,0.042660
1513.2992,0.043398
1514.2310,0.043543
1515.1628,0.043134
1516.0947,0.043468
1517.0265,0.043565
1517.9583,0.044191
1518.8902,0.043912
1519.8220,0.042227
1520.7538,0.042178
1521.6857,0.043672
1522.6175,0.044649
1523.5493,0.044273
1524.4812,0.043573
1525.4130,0.043500
1526.3448,0.044454
1527.2767,0.044364
1528.2085,0.044186
1529.1403,0.044862
1530.0722,0.044269
1531.0040,0.043489
1531.9359,0.043551
1532.8677,0.044526
1533.7995,0.045112
1534.7314,0.045628
1535.6632,0.045104
1536.5950,0.044068
1537.5269,0.043505
1538.4587,0.043214
1539.3905,0.044357
1540.3224,0.047707
1541.2542,0.048097
1542.1860,0.046257
1543.1179,0.046828
1544.0497,0.047454
1544.9815,0.046497
1545.9134,0.046704
1546.8452,0.046932
1547.7770,0.046008
1548.7089,0.045779
1549.6407,0.046284
1550.5725,0.047376
1551.5044,0.048060
1552.4362,0.047365
1553.3680,0.046735
1554.2999,0.046508
1555.2317,0.047317
1556.1635,0.048256
1557.0954,0.047540
1558.0272,0.047736
1558.9591,0.050542
1559.8909,0.054075
1560.8227,0.054434
1561.7546,0.053295
1562.6864,0.051103
1563.6182,0.050251
1564.5501,0.050267
1565.4819,0.050721
1566.4137,0.051444
1567.3456,0.051492
1568.2774,0.051374
1569.2092,0.052022
1570.1411,0.053914
1571.0729,0.055858
1572.0047,0.054532
1572.9366,0.053408
1573.8684,0.053502
1574.8002,0.053716
1575.7321,0.055036
1576.6639,0.057911
1577.5957,0.060415
1578.5276,0.059364
1579.4594,0.058301
1580.3912,0.058449
1581.3231,0.058902
1582.2549,0.059542
1583.1867,0.060536
1584.1186,0.061499
1585.0504,0.061863
1585.9822,0.062271
1586.9141,0.063075
1587.8459,0.064432
1588.7778,0.065515
1589.7096,0.066082
1590.6414,0.066981
1591.5733,0.068132
1592.5051,0.069027
1593.4369,0.069990
1594.3688,0.071097
1595.3006,0.072074
1596.2324,0.072786
1597.1643,0.073840
