Wavenumber,Intensity
650.4205,0.279164
651.3523,0.288779
652.2841,0.306357
653.2160,0.306584
654.1478,0.299431
655.0796,0.306707
656.0115,0.307858
656.9433,0.305899
657.8751,0.296753
658.8070,0.294065
659.7388,0.294349
660.6706,0.289794
661.6025,0.288212
662.5343,0.290494
663.4661,0.289411
664.3980,0.288005
665.3298,0.285206
666.2616,0.278340
667.1935,0.270784
668.1253,0.280032
669.0571,0.292363
669.9890,0.288421
670.9208,0.287546
671.8526,0.286915
672.7845,0.279179
673.7163,0.278170
674.6481,0.279627
675.5800,0.281137
676.5118,0.276490
677.4437,0.277080
678.3755,0.279324
679.3073,0.276891
680.2392,0.275687
681.1710,0.272764
682.1028,0.267437
683.0347,0.269969
683.9665,0.272225
684.8983,0.274570
685.8302,0.273007
686.7620,0.269733
687.6938,0.266457
688.6257,0.263454
689.5575,0.258805
690.4893,0.262128
691.4212,0.266708
692.3530,0.267325
693.2848,0.262859
694.2167,0.261784
695.1485,0.259708
696.0803,0.258624
697.0122,0.258576
697.9440,0.258046
698.8758,0.253396
699.8077,0.251262
700.7395,0.253164
701.6713,0.252231
702.6032,0.248547
703.5350,0.251416
704.4669,0.249955
705.3987,0.247440
706.3305,0.246137
707.2624,0.244690
708.1942,0.245251
709.1260,0.243704
710.0579,0.240638
710.9897,0.242909
711.9215,0.241364
712.8534,0.237915
713.7852,0.237064
714.7170,0.239429
715.6489,0.236259
716.5807,0.234369
717.5125,0.232748
718.4444,0.232376
719.3762,0.233384
720.3080,0.233912
721.2399,0.232636
722.1717,0.230308
723.1035,0.228278
724.0354,0.228309
724.9672,0.226854
725.8990,0.226766
726.8309,0.227025
727.7627,0.225074
728.6945,0.222428
729.6264,0.223188
730.5582,0.223068
731.4901,0.221945
732.4219,0.217764
733.3537,0.216489
734.2856,0.218383
735.2174,0.217770
736.1492,0.213182
737.0811,0.211502
738.0129,0.211674
738.9447,0.212308
739.8766,0.211634
740.8084,0.210824
741.7402,0.208917
742.6721,0.208577
743.6039,0.207938
744.5357,0.207766
745.4676,0.206792
746.3994,0.204421
747.3312,0.202244
748.2631,0.200851
749.1949,0.199197
750.1267,0.198932
751.0586,0.197764
751.9904,0.196700
752.9222,0.195533
753.8541,0.194067
754.7859,0.191260
755.7177,0.191383
756.6496,0.192842
757.5814,0.193492
758.5132,0.191649
759.4451,0.189166
760.3769,0.186724
761.3088,0.187292
762.2406,0.186530
763.1724,0.185322
764.1043,0.184771
765.0361,0.184088
765.9679,0.182096
766.8998,0.179632
767.8316,0.178596
768.7634,0.178574
769.6953,0.177588
770.6271,0.176089
771.5589,0.175449
772.4908,0.176435
773.4226,0.175843
774.3544,0.174267
775.2863,0.171665
776.2181,0.171179
777.1499,0.170981
778.0818,0.169948
779.0136,0.169273
779.9454,0.167433
780.8773,0.165482
781.8091,0.166426
782.7409,0.165963
783.6728,0.163420
784.6046,0.161613
785.5364,0.160802
786.4683,0.160490
787.4001,0.160219
788.3320,0.159040
789.2638,0.159033
790.1956,0.159471
791.1275,0.157325
792.0593,0.155336
792.9911,0.155278
793.9230,0.154170
794.8548,0.153476
795.7866,0.152385
796.7185,0.152521
797.6503,0.152421
798.5821,0.151262
799.5140,0.150856
800.4458,0.150493
801.3776,0.149542
802.3095,0.148435
803.2413,0.148627
804.1731,0.149368
805.1050,0.148821
806.0368,0.147291
806.9686,0.146723
807.9005,0.144527
808.8323,0.141558
809.7641,0.141073
810.6960,0.140016
811.6278,0.137412
812.5596,0.135497
813.4915,0.134642
814.4233,0.133531
815.3552,0.131716
816.2870,0.130342
817.2188,0.130003
818.1507,0.128337
819.0825,0.125705
820.0143,0.124315
820.9462,0.124598
821.8780,0.123552
822.8098,0.121749
823.7417,0.120381
824.6735,0.119650
825.6053,0.119235
826.5372,0.118668
827.4690,0.117724
828.4008,0.116482
829.3327,0.114826
830.2645,0.115098
831.1963,0.115590
832.1282,0.114636
833.0600,0.113148
833.9918,0.112420
834.9237,0.112167
835.8555,0.111637
836.7873,0.110444
837.7192,0.108958
838.6510,0.107798
839.5828,0.107847
840.5147,0.107339
841.4465,0.106341
842.3784,0.106324
843.3102,0.105855
844.2420,0.104762
845.1739,0.103877
846.1057,0.102891
847.0375,0.102183
847.9694,0.101375
848.9012,0.101307
849.8330,0.101472
850.7649,0.100626
851.6967,0.099730
852.6285,0.099505
853.5604,0.099466
854.4922,0.099715
855.4240,0.099464
856.3559,0.099066
857.2877,0.098982
858.2195,0.098401
859.1514,0.098244
860.0832,0.099599
861.0150,0.100360
861.9469,0.100133
862.8787,0.100909
863.8105,0.102769
864.7424,0.104314
865.6742,0.105798
866.6060,0.108298
867.5379,0.111731
868.4697,0.115856
869.4016,0.120891
870.3334,0.126770
871.2652,0.133960
872.1971,0.142745
873.1289,0.153115
874.0607,0.164585
874.9926,0.175956
875.9244,0.186885
876.8562,0.196600
877.7881,0.202602
878.7199,0.203939
879.6517,0.201481
880.5836,0.195288
881.5154,0.185045
882.4472,0.172813
883.3791,0.159858
884.3109,0.147420
885.2427,0.135533
886.1746,0.124942
887.1064,0.116045
888.0382,0.107956
888.9701,0.100508
889.9019,0.094181
890.8337,0.088667
891.7656,0.084747
892.6974,0.081256
893.6292,0.077913
894.5611,0.075443
895.4929,0.073657
896.4247,0.072325
897.3566,0.070700
898.2884,0.069017
899.2203,0.067827
900.1521,0.066585
901.0839,0.065742
902.0158,0.064838
902.9476,0.064018
903.8794,0.063412
904.8113,0.062591
905.7431,0.061610
906.6749,0.061255
907.6068,0.060164
908.5386,0.059335
909.4704,0.059146
910.4023,0.058759
911.3341,0.057944
912.2659,0.057513
913.1978,0.056983
914.1296,0.056432
915.0614,0.056135
915.9933,0.055695
916.9251,0.054989
917.8569,0.054712
918.7888,0.054695
919.7206,0.054244
920.6524,0.053677
921.5843,0.053694
922.5161,0.053554
923.4479,0.053032
924.3798,0.052265
925.3116,0.052066
926.2435,0.051897
927.1753,0.051489
928.1071,0.051219
929.0390,0.050960
929.9708,0.050549
930.9026,0.050388
931.8345,0.050188
932.7663,0.049735
933.6981,0.049323
934.6300,0.049060
935.5618,0.049092
936.4936,0.049207
937.4255,0.049139
938.3573,0.048868
939.2891,0.048628
940.2210,0.048682
941.1528,0.048448
942.0846,0.048079
943.0165,0.047833
943.9483,0.047685
944.8801,0.047529
945.8120,0.047301
946.7438,0.047172
947.6756,0.046805
948.6075,0.046780
949.5393,0.047092
950.4711,0.046658
951.4030,0.046285
952.3348,0.046693
953.2667,0.046540
954.1985,0.046244
955.1303,0.046274
956.0622,0.046509
956.9940,0.046487
957.9258,0.046099
958.8577,0.045697
959.7895,0.045417
960.7213,0.045707
961.6532,0.046103
962.5850,0.046137
963.5168,0.046068
964.4487,0.046095
965.3805,0.045882
966.3123,0.045508
967.2442,0.045375
968.1760,0.045719
969.1078,0.046001
970.0397,0.045691
970.9715,0.045570
971.9033,0.045787
972.8352,0.045936
973.7670,0.045994
974.6988,0.046009
975.6307,0.046020
976.5625,0.045932
977.4943,0.046003
978.4262,0.046100
979.3580,0.046456
980.2899,0.046705
981.2217,0.046674
982.1535,0.046463
983.0854,0.046578
984.0172,0.046952
984.9490,0.047100
985.8809,0.047253
986.8127,0.047567
987.7445,0.047780
988.6764,0.048063
989.6082,0.048153
990.5400,0.048338
991.4719,0.048751
992.4037,0.048954
993.3355,0.049148
994.2674,0.049638
995.1992,0.050125
996.1310,0.050492
997.0629,0.050839
997.9947,0.051012
998.9265,0.051094
999.8584,0.051750
1000.7902,0.052674
1001.7220,0.053161
1002.6539,0.053707
1003.5857,0.054463
1004.5175,0.055388
1005.4494,0.056289
1006.3812,0.056859
1007.3131,0.057608
1008.2449,0.058746
1009.1767,0.059932
1010.1086,0.060917
1011.0404,0.062144
1011.9722,0.063446
1012.9041,0.064757
1013.8359,0.066417
1014.7677,0.068129
1015.6996,0.070131
1016.6314,0.072234
1017.5632,0.074181
1018.4951,0.076668
1019.4269,0.079707
1020.3587,0.082751
1021.2906,0.085988
1022.2224,0.089762
1023.1542,0.093859
1024.0861,0.098402
1025.0179,0.103825
1025.9497,0.109987
1026.8816,0.116339
1027.8134,0.123346
1028.7452,0.131485
1029.6771,0.140554
1030.6089,0.150565
1031.5407,0.162011
1032.4726,0.175385
1033.4044,0.190332
1034.3362,0.207040
1035.2681,0.225706
1036.1999,0.246182
1037.1318,0.268883
1038.0636,0.293156
1038.9954,0.317990
1039.9273,0.342113
1040.8591,0.364070
1041.7909,0.382301
1042.7228,0.394978
1043.6546,0.401676
1044.5864,0.402366
1045.5183,0.395953
1046.4501,0.383250
1047.3819,0.366410
1048.3138,0.346440
1049.2456,0.324223
1050.1774,0.300305
1051.1093,0.275768
1052.0411,0.251771
1052.9729,0.228650
1053.9048,0.206497
1054.8366,0.185941
1055.7684,0.167315
1056.7003,0.150434
1057.6321,0.135938
1058.5639,0.124520
1059.4958,0.115368
1060.4276,0.107705
1061.3594,0.101644
1062.2913,0.097274
1063.2231,0.094230
1064.1550,0.092171
1065.0868,0.090926
1066.0186,0.090496
1066.9505,0.090725
1067.8823,0.091396
1068.8141,0.092782
1069.7460,0.094816
1070.6778,0.097219
1071.6096,0.100075
1072.5415,0.103281
1073.4733,0.106979
1074.4051,0.111441
1075.3370,0.116206
1076.2688,0.121136
1077.2006,0.126297
1078.1325,0.131663
1079.0643,0.137148
1079.9961,0.142558
1080.9280,0.147754
1081.8598,0.152793
1082.7916,0.157347
1083.7235,0.161185
1084.6553,0.164138
1085.5871,0.165754
1086.5190,0.165913
1087.4508,0.164779
1088.3826,0.162475
1089.3145,0.158744
1090.2463,0.153388
1091.1782,0.147121
1092.1100,0.140120
1093.0418,0.131986
1093.9737,0.123663
1094.9055,0.115694
1095.8373,0.107520
1096.7692,0.099569
1097.7010,0.092701
1098.6328,0.086297
1099.5647,0.080217
1100.4965,0.074783
1101.4283,0.069895
1102.3602,0.065862
1103.2920,0.062453
1104.2238,0.059317
1105.1557,0.056680
1106.0875,0.054443
1107.0193,0.052626
1107.9512,0.051162
1108.8830,0.049787
1109.8148,0.048545
1110.7467,0.047432
1111.6785,0.046430
1112.6103,0.045546
1113.5422,0.044842
1114.4740,0.044384
1115.4058,0.043855
1116.3377,0.043342
1117.2695,0.043118
1118.2014,0.042764
1119.1332,0.042341
1120.0650,0.042172
1120.9969,0.042094
1121.9287,0.041888
1122.8605,0.041611
1123.7924,0.041509
1124.7242,0.041563
1125.6560,0.041651
1126.5879,0.041485
1127.5197,0.041159
1128.4515,0.041053
1129.3834,0.040914
1130.3152,0.040518
1131.2470,0.040233
1132.1789,0.040037
1133.1107,0.039679
1134.0425,0.039552
1134.9744,0.039462
1135.9062,0.039102
1136.8380,0.038881
1137.7699,0.038614
1138.7017,0.038401
1139.6335,0.038322
1140.5654,0.037888
1141.4972,0.037487
1142.4290,0.037409
1143.3609,0.037490
1144.2927,0.037692
1145.2246,0.037733
1146.1564,0.037319
1147.0882,0.036943
1148.0201,0.036992
1148.9519,0.037076
1149.8837,0.036985
1150.8156,0.036803
1151.7474,0.036835
1152.6792,0.037024
1153.6111,0.037089
1154.5429,0.036929
1155.4747,0.036610
1156.4066,0.036443
1157.3384,0.036368
1158.2702,0.036102
1159.2021,0.035756
1160.1339,0.035564
1161.0657,0.035413
1161.9976,0.034941
1162.9294,0.034497
1163.8612,0.034147
1164.7931,0.033672
1165.7249,0.033358
1166.6567,0.033088
1167.5886,0.032894
1168.5204,0.032830
1169.4522,0.032629
1170.3841,0.032309
1171.3159,0.032080
1172.2477,0.031961
1173.1796,0.031947
1174.1114,0.032150
1175.0433,0.032290
1175.9751,0.032025
1176.9069,0.031719
1177.8388,0.031806
1178.7706,0.032007
1179.7024,0.032099
1180.6343,0.031996
1181.5661,0.031724
1182.4979,0.031430
1183.4298,0.031303
1184.3616,0.031511
1185.2934,0.031600
1186.2253,0.031585
1187.1571,0.031684
1188.0889,0.031639
1189.0208,0.031683
1189.9526,0.031829
1190.8844,0.031813
1191.8163,0.031780
1192.7481,0.031580
1193.6799,0.031423
1194.6118,0.031493
1195.5436,0.031389
1196.4754,0.031455
1197.4073,0.031756
1198.3391,0.031852
1199.2709,0.031767
1200.2028,0.031799
1201.1346,0.031773
1202.0665,0.031803
1202.9983,0.032044
1203.9301,0.032134
1204.8620,0.032136
1205.7938,0.032136
1206.7256,0.032113
1207.6575,0.032100
1208.5893,0.032196
1209.5211,0.032480
1210.4530,0.032512
1211.3848,0.032265
1212.3166,0.032257
1213.2485,0.032486
1214.1803,0.032526
1215.1121,0.032417
1216.0440,0.032511
1216.9758,0.032501
1217.9076,0.032395
1218.8395,0.032629
1219.7713,0.032877
1220.7031,0.032941
1221.6350,0.033088
1222.5668,0.033266
1223.4986,0.033247
1224.4305,0.033147
1225.3623,0.033271
1226.2941,0.033457
1227.2260,0.033495
1228.1578,0.033594
1229.0897,0.033758
1230.0215,0.033934
1230.9533,0.033794
1231.8852,0.033725
1232.8170,0.034043
1233.7488,0.034224
1234.6807,0.034360
1235.6125,0.034580
1236.5443,0.034874
1237.4762,0.035037
1238.4080,0.034950
1239.3398,0.034991
1240.2717,0.035320
1241.2035,0.035833
1242.1353,0.036153
1243.0672,0.036226
1243.9990,0.036429
1244.9308,0.036757
1245.8627,0.036860
1246.7945,0.036939
1247.7263,0.037105
1248.6582,0.037392
1249.5900,0.037666
1250.5218,0.037916
1251.4537,0.038315
1252.3855,0.038648
1253.3173,0.039051
1254.2492,0.039510
1255.1810,0.040130
1256.1129,0.040745
1257.0447,0.041173
1257.9765,0.041628
1258.9084,0.042197
1259.8402,0.043036
1260.7720,0.043858
1261.7039,0.044479
1262.6357,0.045259
1263.5675,0.045992
1264.4994,0.047103
1265.4312,0.048293
1266.3630,0.049009
1267.2949,0.050008
1268.2267,0.051424
1269.1585,0.052512
1270.0904,0.053441
1271.0222,0.054200
1271.9540,0.054861
1272.8859,0.055532
1273.8177,0.055859
1274.7495,0.055748
1275.6814,0.055513
1276.6132,0.055052
1277.5450,0.054350
1278.4769,0.053619
1279.4087,0.053057
1280.3405,0.052415
1281.2724,0.051650
1282.2042,0.050876
1283.1361,0.050115
1284.0679,0.049418
1284.9997,0.048970
1285.9316,0.048668
1286.8634,0.048342
1287.7952,0.048266
1288.7271,0.048426
1289.6589,0.048442
1290.5907,0.048388
1291.5226,0.048539
1292.4544,0.048532
1293.3862,0.048731
1294.3181,0.049326
1295.2499,0.049721
1296.1817,0.049807
1297.1136,0.050003
1298.0454,0.050620
1298.9772,0.051278
1299.9091,0.051650
1300.8409,0.051973
1301.7727,0.052582
1302.7046,0.053145
1303.6364,0.053517
1304.5682,0.054032
1305.5001,0.054700
1306.4319,0.055263
1307.3637,0.055768
1308.2956,0.056400
1309.2274,0.057002
1310.1592,0.057181
1311.0911,0.057560
1312.0229,0.058134
1312.9548,0.058600
1313.8866,0.058867
1314.8184,0.059229
1315.7503,0.059687
1316.6821,0.059963
1317.6139,0.060505
1318.5458,0.060959
1319.4776,0.061163
1320.4094,0.061495
1321.3413,0.061759
1322.2731,0.061736
1323.2049,0.061807
1324.1368,0.061885
1325.0686,0.061798
1326.0004,0.061718
1326.9323,0.061652
1327.8641,0.061817
1328.7959,0.061833
1329.7278,0.061545
1330.6596,0.061296
1331.5914,0.061182
1332.5233,0.060684
1333.4551,0.060220
1334.3869,0.059907
1335.3188,0.059293
1336.2506,0.058739
1337.1824,0.058254
1338.1143,0.058017
1339.0461,0.057971
1339.9780,0.058004
1340.9098,0.057972
1341.8416,0.056981
1342.7735,0.055684
1343.7053,0.054892
1344.6371,0.054468
1345.5690,0.054189
1346.5008,0.053869
1347.4326,0.053213
1348.3645,0.052456
1349.2963,0.052089
1350.2281,0.051923
1351.1600,0.051570
1352.0918,0.051063
1353.0236,0.051247
1353.9555,0.051380
1354.8873,0.051003
1355.8191,0.050850
1356.7510,0.050733
1357.6828,0.050519
1358.6146,0.050590
1359.5465,0.050688
1360.4783,0.050682
1361.4101,0.050772
1362.3420,0.051398
1363.2738,0.052387
1364.2056,0.053249
1365.1375,0.053323
1366.0693,0.053223
1367.0012,0.054112
1367.9330,0.055649
1368.8648,0.057470
1369.7967,0.059474
1370.7285,0.061041
1371.6603,0.062724
1372.5922,0.065187
1373.5240,0.067736
1374.4558,0.070596
1375.3877,0.073217
1376.3195,0.074432
1377.2513,0.075097
1378.1832,0.076356
1379.1150,0.077799
1380.0468,0.078867
1380.9787,0.079327
1381.9105,0.079425
1382.8423,0.079460
1383.7742,0.079427
1384.7060,0.079052
1385.6378,0.078222
1386.5697,0.077509
1387.5015,0.077341
1388.4333,0.076785
1389.3652,0.075257
1390.2970,0.073387
1391.2288,0.071854
1392.1607,0.070778
1393.0925,0.069614
1394.0244,0.068998
1394.9562,0.069692
1395.8880,0.070293
1396.8199,0.069649
1397.7517,0.069349
1398.6835,0.069921
1399.6154,0.070651
1400.5472,0.070855
1401.4790,0.070279
1402.4109,0.069888
1403.3427,0.069998
1404.2745,0.070338
1405.2064,0.071129
1406.1382,0.072207
1407.0700,0.072091
1408.0019,0.071733
1408.9337,0.072283
1409.8655,0.072646
1410.7974,0.072395
1411.7292,0.072548
1412.6610,0.072843
1413.5929,0.072743
1414.5247,0.072621
1415.4565,0.072199
1416.3884,0.071659
1417.3202,0.071641
1418.2520,0.072130
1419.1839,0.073239
1420.1157,0.074535
1421.0476,0.073920
1421.9794,0.071869
1422.9112,0.070949
1423.8431,0.070983
1424.7749,0.071247
1425.7067,0.070384
1426.6386,0.069084
1427.5704,0.068347
1428.5022,0.067885
1429.4341,0.067522
1430.3659,0.067348
1431.2977,0.066694
1432.2296,0.065441
1433.1614,0.064467
1434.0932,0.063935
1435.0251,0.062855
1435.9569,0.062211
1436.8887,0.063330
1437.8206,0.064769
1438.7524,0.063543
1439.6842,0.061997
1440.6161,0.061589
1441.5479,0.061636
1442.4797,0.061688
1443.4116,0.061977
1444.3434,0.062618
1445.2752,0.063486
1446.2071,0.064359
1447.1389,0.065279
1448.0707,0.066555
1449.0026,0.068256
1449.9344,0.068780
1450.8663,0.068381
1451.7981,0.068413
1452.7299,0.068620
1453.6618,0.068168
1454.5936,0.067207
1455.5254,0.066239
1456.4573,0.065951
1457.3891,0.066137
1458.3209,0.064904
1459.2528,0.062272
1460.1846,0.059481
1461.1164,0.056426
1462.0483,0.054133
1462.9801,0.052359
1463.9119,0.050666
1464.8438,0.049432
1465.7756,0.048383
1466.7074,0.046437
1467.6393,0.045050
1468.5711,0.044246
1469.5029,0.043317
1470.4348,0.042203
1471.3666,0.041809
1472.2984,0.042046
1473.2303,0.042727
1474.1621,0.042057
1475.0939,0.040857
1476.0258,0.040609
1476.9576,0.041143
1477.8895,0.041632
1478.8213,0.041444
1479.7531,0.041532
1480.6850,0.041831
1481.6168,0.041893
1482.5486,0.041396
1483.4805,0.041113
1484.4123,0.040901
1485.3441,0.040602
1486.2760,0.040211
1487.2078,0.039854
1488.1396,0.039504
1489.0715,0.038508
1490.0033,0.037363
1490.9351,0.037076
1491.8670,0.036269
1492.7988,0.034511
1493.7306,0.033498
1494.6625,0.032862
1495.5943,0.032595
1496.5261,0.032807
1497.4580,0.032470
1498.3898,0.031687
1499.3216,0.031503
1500.2535,0.031169
1501.1853,0.030551
1502.1171,0.029993
1503.0490,0.029575
1503.9808,0.029057
1504.9127,0.028750
1505.8445,0.029316
1506.7763,0.030404
1507.7082,0.030092
1508.6400,0.029251
1509.5718,0.029031
1510.5037,0.029097
1511.4355,0.028962
1512.3673,0.028869
1513.2992,0.028589
1514.2310,0.028063
1515.1628,0.027750
1516.0947,0.028463
1517.0265,0.029115
1517.9583,0.028741
1518.8902,0.027615
1519.8220,0.027070
1520.7538,0.027906
1521.6857,0.029275
1522.6175,0.028609
1523.5493,0.027845
1524.4812,0.027649
1525.4130,0.027895
1526.3448,0.028137
1527.2767,0.028050
1528.2085,0.027420
1529.1403,0.027150
1530.0722,0.027067
1531.0040,0.027023
1531.9359,0.027019
1532.8677,0.027414
1533.7995,0.027878
1534.7314,0.028028
1535.6632,0.027290
1536.5950,0.026694
1537.5269,0.026723
1538.4587,0.026821
1539.3905,0.028259
1540.3224,0.029790
1541.2542,0.027811
1542.1860,0.026662
1543.1179,0.026896
1544.0497,0.026616
1544.9815,0.026693
1545.9134,0.028002
1546.8452,0.027891
1547.7770,0.026737
1548.7089,0.026487
1549.6407,0.026900
1550.5725,0.027657
1551.5044,0.027805
1552.4362,0.027228
1553.3680,0.027007
1554.2999,0.027096
1555.2317,0.027469
1556.1635,0.026671
1557.0954,0.026200
1558.0272,0.027732
1558.9591,0.030466
1559.8909,0.031256
1560.8227,0.029697
1561.7546,0.028288
1562.6864,0.027384
1563.6182,0.027667
1564.5501,0.028120
1565.4819,0.028137
1566.4137,0.028430
1567.3456,0.028047
1568.2774,0.028124
1569.2092,0.028681
1570.1411,0.029592
1571.0729,0.029848
1572.0047,0.028932
1572.9366,0.029000
1573.8684,0.029514
1574.8002,0.029604
1575.7321,0.030025
1576.6639,0.030828
1577.5957,0.031669
1578.5276,0.030994
1579.4594,0.030899
1580.3912,0.031126
1581.3231,0.031119
1582.2549,0.031602
1583.1867,0.032070
1584.1186,0.032196
1585.0504,0.032636
1585.9822,0.032798
1586.9141,0.032906
1587.8459,0.033491
1588.7778,0.034129
1589.7096,0.034550
1590.6414,0.034984
1591.5733,0.035468
1592.5051,0.035638
1593.4369,0.035682
1594.3688,0.036439
1595.3006,0.037363
1596.2324,0.037828
1597.1643,0.038116
