Wavenumber,Intensity
650.4205,0.392797
651.3523,0.384321
652.2841,0.402848
653.2160,0.418872
654.1478,0.409030
655.0796,0.407556
656.0115,0.412660
656.9433,0.408504
657.8751,0.404540
658.8070,0.405521
659.7388,0.404530
660.6706,0.403270
661.6025,0.401264
662.5343,0.399176
663.4661,0.395154
664.3980,0.386889
665.3298,0.381396
666.2616,0.381338
667.1935,0.378791
668.1253,0.386881
669.0571,0.401152
669.9890,0.383195
670.9208,0.375071
671.8526,0.377154
672.7845,0.377508
673.7163,0.382589
674.6481,0.377031
675.5800,0.371931
676.5118,0.371267
677.4437,0.370776
678.3755,0.373828
679.3073,0.373004
680.2392,0.370707
681.1710,0.370465
682.1028,0.364148
683.0347,0.361611
683.9665,0.363434
684.8983,0.366827
685.8302,0.362822
686.7620,0.356992
687.6938,0.357091
688.6257,0.354493
689.5575,0.351789
690.4893,0.353751
691.4212,0.352269
692.3530,0.350974
693.2848,0.349320
694.2167,0.346989
695.1485,0.348400
696.0803,0.350930
697.0122,0.349173
697.9440,0.345318
698.8758,0.340955
699.8077,0.340200
700.7395,0.339737
701.6713,0.338106
702.6032,0.336356
703.5350,0.335777
704.4669,0.336467
705.3987,0.338225
706.3305,0.337517
707.2624,0.332561
708.1942,0.329110
709.1260,0.328047
710.0579,0.328204
710.9897,0.329586
711.9215,0.326188
712.8534,0.321890
713.7852,0.320534
714.7170,0.318555
715.6489,0.316857
716.5807,0.318736
717.5125,0.317280
718.4444,0.313025
719.3762,0.311765
720.3080,0.311111
721.2399,0.305720
722.1717,0.303639
723.1035,0.306439
724.0354,0.306252
724.9672,0.304368
725.8990,0.305346
726.8309,0.302958
727.7627,0.300642
728.6945,0.299895
729.6264,0.298142
730.5582,0.295861
731.4901,0.293355
732.4219,0.290973
733.3537,0.291550
734.2856,0.293532
735.2174,0.293644
736.1492,0.291581
737.0811,0.289822
738.0129,0.286150
738.9447,0.283446
739.8766,0.282040
740.8084,0.284456
741.7402,0.282756
742.6721,0.276207
743.6039,0.274132
744.5357,0.275720
745.4676,0.273725
746.3994,0.272190
747.3312,0.273165
748.2631,0.272651
749.1949,0.269273
750.1267,0.266407
751.0586,0.266507
751.9904,0.267405
752.9222,0.265808
753.8541,0.263086
754.7859,0.261294
755.7177,0.260759
756.6496,0.259042
757.5814,0.257423
758.5132,0.256869
759.4451,0.257059
760.3769,0.255941
761.3088,0.252316
762.2406,0.250161
763.1724,0.249440
764.1043,0.248725
765.0361,0.249290
765.9679,0.247695
766.8998,0.244274
767.8316,0.241892
768.7634,0.241366
769.6953,0.239306
770.6271,0.238826
771.5589,0.237788
772.4908,0.236066
773.4226,0.236030
774.3544,0.236354
775.2863,0.235027
776.2181,0.233048
777.1499,0.231648
778.0818,0.229776
779.0136,0.227513
779.9454,0.226142
780.8773,0.225431
781.8091,0.225734
782.7409,0.224806
783.6728,0.222679
784.6046,0.221228
785.5364,0.220415
786.4683,0.218244
787.4001,0.215289
788.3320,0.213740
789.2638,0.213370
790.1956,0.212529
791.1275,0.212738
792.0593,0.212644
792.9911,0.211753
793.9230,0.209808
794.8548,0.208528
795.7866,0.207138
796.7185,0.205334
797.6503,0.203856
798.5821,0.202730
799.5140,0.201772
800.4458,0.199924
801.3776,0.198034
802.3095,0.197865
803.2413,0.197907
804.1731,0.197088
805.1050,0.194721
806.0368,0.193077
806.9686,0.192549
807.9005,0.192437
808.8323,0.192197
809.7641,0.190956
810.6960,0.187721
811.6278,0.185105
812.5596,0.183843
813.4915,0.183137
814.4233,0.182770
815.3552,0.181372
816.2870,0.180589
817.2188,0.180541
818.1507,0.179811
819.0825,0.178229
820.0143,0.176236
820.9462,0.174568
821.8780,0.173150
822.8098,0.173261
823.7417,0.173110
824.6735,0.171722
825.6053,0.170860
826.5372,0.170342
827.4690,0.169466
828.4008,0.169362
829.3327,0.168755
830.2645,0.166768
831.1963,0.164587
832.1282,0.163166
833.0600,0.163011
833.9918,0.162716
834.9237,0.160432
835.8555,0.159123
836.7873,0.158951
837.7192,0.158425
838.6510,0.156651
839.5828,0.155180
840.5147,0.154901
841.4465,0.153752
842.3784,0.151573
843.3102,0.150502
844.2420,0.149851
845.1739,0.149440
846.1057,0.148678
847.0375,0.147377
847.9694,0.146761
848.9012,0.146143
849.8330,0.145617
850.7649,0.145604
851.6967,0.145098
852.6285,0.143456
853.5604,0.141405
854.4922,0.140716
855.4240,0.140441
856.3559,0.139327
857.2877,0.138027
858.2195,0.137644
859.1514,0.137907
860.0832,0.136953
861.0150,0.135506
861.9469,0.135633
862.8787,0.135789
863.8105,0.135317
864.7424,0.134800
865.6742,0.134981
866.6060,0.134983
867.5379,0.134921
868.4697,0.135380
869.4016,0.136100
870.3334,0.136548
871.2652,0.137724
872.1971,0.139104
873.1289,0.140694
874.0607,0.142249
874.9926,0.143155
875.9244,0.143685
876.8562,0.144599
877.7881,0.145173
878.7199,0.144058
879.6517,0.141779
880.5836,0.138848
881.5154,0.134813
882.4472,0.130945
883.3791,0.127213
884.3109,0.123264
885.2427,0.120216
886.1746,0.117476
887.1064,0.115106
888.0382,0.112355
888.9701,0.109619
889.9019,0.108051
890.8337,0.106733
891.7656,0.105781
892.6974,0.104641
893.6292,0.103193
894.5611,0.102051
895.4929,0.101609
896.4247,0.101024
897.3566,0.100567
898.2884,0.100172
899.2203,0.099337
900.1521,0.098732
901.0839,0.098247
902.0158,0.097612
902.9476,0.097573
903.8794,0.097425
904.8113,0.096938
905.7431,0.096842
906.6749,0.097016
907.6068,0.096701
908.5386,0.096398
909.4704,0.096313
910.4023,0.096129
911.3341,0.096055
912.2659,0.096462
913.1978,0.096369
914.1296,0.096015
915.0614,0.096337
915.9933,0.097000
916.9251,0.097662
917.8569,0.098378
918.7888,0.098331
919.7206,0.098270
920.6524,0.099062
921.5843,0.099691
922.5161,0.099895
923.4479,0.099782
924.3798,0.099816
925.3116,0.100006
926.2435,0.099528
927.1753,0.099146
928.1071,0.099062
929.0390,0.098164
929.9708,0.097062
930.9026,0.096244
931.8345,0.095821
932.7663,0.095285
933.6981,0.093962
934.6300,0.092581
935.5618,0.091721
936.4936,0.091008
937.4255,0.090107
938.3573,0.089451
939.2891,0.088796
940.2210,0.088059
941.1528,0.087566
942.0846,0.087058
943.0165,0.086082
943.9483,0.085515
944.8801,0.085120
945.8120,0.084050
946.7438,0.083286
947.6756,0.082622
948.6075,0.081680
949.5393,0.081202
950.4711,0.080621
951.4030,0.079763
952.3348,0.079125
953.2667,0.078727
954.1985,0.078263
955.1303,0.077519
956.0622,0.076694
956.9940,0.075614
957.9258,0.074846
958.8577,0.074876
959.7895,0.074693
960.7213,0.074438
961.6532,0.074136
962.5850,0.073851
963.5168,0.073953
964.4487,0.074098
965.3805,0.074310
966.3123,0.075076
967.2442,0.075587
968.1760,0.075286
969.1078,0.075423
970.0397,0.076075
970.9715,0.076762
971.9033,0.077778
972.8352,0.078756
973.7670,0.079525
974.6988,0.080665
975.6307,0.082006
976.5625,0.083821
977.4943,0.085628
978.4262,0.087472
979.3580,0.089570
980.2899,0.091833
981.2217,0.094655
982.1535,0.097669
983.0854,0.100589
984.0172,0.103454
984.9490,0.106794
985.8809,0.110564
986.8127,0.114224
987.7445,0.117421
988.6764,0.120365
989.6082,0.123158
990.5400,0.125542
991.4719,0.127303
992.4037,0.128801
993.3355,0.129982
994.2674,0.130945
995.1992,0.131603
996.1310,0.131912
997.0629,0.132575
997.9947,0.132629
998.9265,0.131988
999.8584,0.131410
1000.7902,0.130447
1001.7220,0.128779
1002.6539,0.127427
1003.5857,0.125870
1004.5175,0.123700
1005.4494,0.121569
1006.3812,0.119643
1007.3131,0.118061
1008.2449,0.116809
1009.1767,0.115896
1010.1086,0.115248
1011.0404,0.115278
1011.9722,0.115758
1012.9041,0.116001
1013.8359,0.116317
1014.7677,0.117034
1015.6996,0.117748
1016.6314,0.118361
1017.5632,0.118823
1018.4951,0.119164
1019.4269,0.118990
1020.3587,0.118919
1021.2906,0.119367
1022.2224,0.120054
1023.1542,0.120926
1024.0861,0.122047
1025.0179,0.123626
1025.9497,0.125804
1026.8816,0.127867
1027.8134,0.130173
1028.7452,0.132762
1029.6771,0.135654
1030.6089,0.138984
1031.5407,0.142356
1032.4726,0.145953
1033.4044,0.150065
1034.3362,0.154652
1035.2681,0.159661
1036.1999,0.165491
1037.1318,0.172104
1038.0636,0.179122
1038.9954,0.186156
1039.9273,0.193363
1040.8591,0.200350
1041.7909,0.206619
1042.7228,0.211798
1043.6546,0.214759
1044.5864,0.215580
1045.5183,0.214278
1046.4501,0.210745
1047.3819,0.205134
1048.3138,0.198280
1049.2456,0.190960
1050.1774,0.183635
1051.1093,0.176329
1052.0411,0.169741
1052.9729,0.163632
1053.9048,0.158227
1054.8366,0.153723
1055.7684,0.150030
1056.7003,0.146497
1057.6321,0.143185
1058.5639,0.140378
1059.4958,0.137902
1060.4276,0.135380
1061.3594,0.133031
1062.2913,0.131021
1063.2231,0.129363
1064.1550,0.127849
1065.0868,0.126617
1066.0186,0.125381
1066.9505,0.123828
1067.8823,0.122705
1068.8141,0.121710
1069.7460,0.120415
1070.6778,0.119529
1071.6096,0.119109
1072.5415,0.118737
1073.4733,0.118321
1074.4051,0.117737
1075.3370,0.117443
1076.2688,0.117412
1077.2006,0.117035
1078.1325,0.116616
1079.0643,0.116357
1079.9961,0.115982
1080.9280,0.115614
1081.8598,0.114955
1082.7916,0.113864
1083.7235,0.112504
1084.6553,0.110749
1085.5871,0.108680
1086.5190,0.106284
1087.4508,0.103713
1088.3826,0.101143
1089.3145,0.098564
1090.2463,0.095868
1091.1782,0.093217
1092.1100,0.090946
1093.0418,0.088976
1093.9737,0.087360
1094.9055,0.086102
1095.8373,0.085057
1096.7692,0.084064
1097.7010,0.083426
1098.6328,0.083155
1099.5647,0.083215
1100.4965,0.083168
1101.4283,0.082810
1102.3602,0.082824
1103.2920,0.083293
1104.2238,0.083562
1105.1557,0.083573
1106.0875,0.083539
1107.0193,0.083383
1107.9512,0.083413
1108.8830,0.083382
1109.8148,0.083148
1110.7467,0.083016
1111.6785,0.082847
1112.6103,0.082407
1113.5422,0.082224
1114.4740,0.081976
1115.4058,0.081794
1116.3377,0.081664
1117.2695,0.081137
1118.2014,0.080744
1119.1332,0.080720
1120.0650,0.080525
1120.9969,0.080144
1121.9287,0.079867
1122.8605,0.079983
1123.7924,0.080259
1124.7242,0.080228
1125.6560,0.080436
1126.5879,0.080665
1127.5197,0.080765
1128.4515,0.080874
1129.3834,0.081205
1130.3152,0.081549
1131.2470,0.081670
1132.1789,0.081904
1133.1107,0.082288
1134.0425,0.082565
1134.9744,0.082643
1135.9062,0.082739
1136.8380,0.082603
1137.7699,0.082340
1138.7017,0.082293
1139.6335,0.082036
1140.5654,0.081150
1141.4972,0.080402
1142.4290,0.079466
1143.3609,0.078178
1144.2927,0.076941
1145.2246,0.075603
1146.1564,0.074056
1147.0882,0.072432
1148.0201,0.070854
1148.9519,0.069521
1149.8837,0.068291
1150.8156,0.067098
1151.7474,0.065843
1152.6792,0.064948
1153.6111,0.064182
1154.5429,0.063470
1155.4747,0.062876
1156.4066,0.062389
1157.3384,0.061915
1158.2702,0.061291
1159.2021,0.060923
1160.1339,0.060494
1161.0657,0.059758
1161.9976,0.059191
1162.9294,0.058623
1163.8612,0.057837
1164.7931,0.057075
1165.7249,0.056346
1166.6567,0.055551
1167.5886,0.054890
1168.5204,0.054234
1169.4522,0.053619
1170.3841,0.052889
1171.3159,0.052328
1172.2477,0.051990
1173.1796,0.051604
1174.1114,0.051163
1175.0433,0.050826
1175.9751,0.050480
1176.9069,0.050276
1177.8388,0.050108
1178.7706,0.050014
1179.7024,0.050086
1180.6343,0.050006
1181.5661,0.050021
1182.4979,0.050160
1183.4298,0.050150
1184.3616,0.050271
1185.2934,0.050462
1186.2253,0.050569
1187.1571,0.050529
1188.0889,0.050606
1189.0208,0.050588
1189.9526,0.050497
1190.8844,0.050564
1191.8163,0.050738
1192.7481,0.050799
1193.6799,0.050719
1194.6118,0.050537
1195.5436,0.050446
1196.4754,0.050487
1197.4073,0.050729
1198.3391,0.051216
1199.2709,0.051430
1200.2028,0.051212
1201.1346,0.051118
1202.0665,0.051224
1202.9983,0.051356
1203.9301,0.051737
1204.8620,0.052047
1205.7938,0.052101
1206.7256,0.052263
1207.6575,0.052481
1208.5893,0.052643
1209.5211,0.052688
1210.4530,0.052784
1211.3848,0.052725
1212.3166,0.052742
1213.2485,0.052755
1214.1803,0.052676
1215.1121,0.052657
1216.0440,0.052594
1216.9758,0.052539
1217.9076,0.052837
1218.8395,0.052839
1219.7713,0.052444
1220.7031,0.052182
1221.6350,0.052305
1222.5668,0.052396
1223.4986,0.052313
1224.4305,0.052251
1225.3623,0.052474
1226.2941,0.052582
1227.2260,0.052392
1228.1578,0.052515
1229.0897,0.052870
1230.0215,0.052997
1230.9533,0.053028
1231.8852,0.053100
1232.8170,0.053319
1233.7488,0.053626
1234.6807,0.053808
1235.6125,0.053636
1236.5443,0.053818
1237.4762,0.054149
1238.4080,0.054187
1239.3398,0.054054
1240.2717,0.054147
1241.2035,0.054393
1242.1353,0.054572
1243.0672,0.054795
1243.9990,0.054876
1244.9308,0.054878
1245.8627,0.054921
1246.7945,0.054801
1247.7263,0.054950
1248.6582,0.055348
1249.5900,0.055539
1250.5218,0.055794
1251.4537,0.056120
1252.3855,0.056199
1253.3173,0.056131
1254.2492,0.056230
1255.1810,0.056612
1256.1129,0.056916
1257.0447,0.057202
1257.9765,0.057428
1258.9084,0.057808
1259.8402,0.058108
1260.7720,0.058181
1261.7039,0.058451
1262.6357,0.058661
1263.5675,0.059064
1264.4994,0.059385
1265.4312,0.059639
1266.3630,0.060018
1267.2949,0.059852
1268.2267,0.059764
1269.1585,0.060086
1270.0904,0.060228
1271.0222,0.060603
1271.9540,0.061014
1272.8859,0.061235
1273.8177,0.061044
1274.7495,0.060860
1275.6814,0.060761
1276.6132,0.060692
1277.5450,0.060622
1278.4769,0.060190
1279.4087,0.059643
1280.3405,0.059374
1281.2724,0.059091
1282.2042,0.058839
1283.1361,0.058407
1284.0679,0.058029
1284.9997,0.057809
1285.9316,0.057534
1286.8634,0.056952
1287.7952,0.056798
1288.7271,0.057064
1289.6589,0.056919
1290.5907,0.056827
1291.5226,0.057085
1292.4544,0.057334
1293.3862,0.056937
1294.3181,0.056658
1295.2499,0.056766
1296.1817,0.056908
1297.1136,0.056959
1298.0454,0.057172
1298.9772,0.057355
1299.9091,0.057465
1300.8409,0.057757
1301.7727,0.057998
1302.7046,0.058218
1303.6364,0.058633
1304.5682,0.059107
1305.5001,0.059229
1306.4319,0.059241
1307.3637,0.059562
1308.2956,0.059834
1309.2274,0.059932
1310.1592,0.060281
1311.0911,0.060732
1312.0229,0.061025
1312.9548,0.061154
1313.8866,0.061534
1314.8184,0.062065
1315.7503,0.062094
1316.6821,0.062056
1317.6139,0.062283
1318.5458,0.062845
1319.4776,0.063091
1320.4094,0.063464
1321.3413,0.063843
1322.2731,0.063914
1323.2049,0.063738
1324.1368,0.063794
1325.0686,0.064041
1326.0004,0.064098
1326.9323,0.064145
1327.8641,0.064144
1328.7959,0.064030
1329.7278,0.064040
1330.6596,0.064328
1331.5914,0.064344
1332.5233,0.064141
1333.4551,0.063836
1334.3869,0.063725
1335.3188,0.063614
1336.2506,0.063267
1337.1824,0.063017
1338.1143,0.063148
1339.0461,0.063203
1339.9780,0.063518
1340.9098,0.064104
1341.8416,0.064004
1342.7735,0.063360
1343.7053,0.062807
1344.6371,0.062349
1345.5690,0.062202
1346.5008,0.062098
1347.4326,0.061784
1348.3645,0.061529
1349.2963,0.061589
1350.2281,0.061587
1351.1600,0.061534
1352.0918,0.061530
1353.0236,0.061651
1353.9555,0.061654
1354.8873,0.061806
1355.8191,0.061833
1356.7510,0.061805
1357.6828,0.061624
1358.6146,0.061502
1359.5465,0.061144
1360.4783,0.060705
1361.4101,0.060834
1362.3420,0.061388
1363.2738,0.062191
1364.2056,0.063467
1365.1375,0.063397
1366.0693,0.062778
1367.0012,0.062401
1367.9330,0.062546
1368.8648,0.063035
1369.7967,0.063187
1370.7285,0.063069
1371.6603,0.063141
1372.5922,0.063601
1373.5240,0.064387
1374.4558,0.065813
1375.3877,0.066883
1376.3195,0.067043
1377.2513,0.066937
1378.1832,0.066791
1379.1150,0.066968
1380.0468,0.067248
1380.9787,0.067448
1381.9105,0.067457
1382.8423,0.067134
1383.7742,0.067144
1384.7060,0.067231
1385.6378,0.066745
1386.5697,0.066449
1387.5015,0.067559
1388.4333,0.069019
1389.3652,0.068286
1390.2970,0.066921
1391.2288,0.066284
1392.1607,0.065583
1393.0925,0.064980
1394.0244,0.064550
1394.9562,0.065046
1395.8880,0.066581
1396.8199,0.066948
1397.7517,0.066529
1398.6835,0.066425
1399.6154,0.067617
1400.5472,0.068206
1401.4790,0.067222
1402.4109,0.066833
1403.3427,0.066877
1404.2745,0.066959
1405.2064,0.067842
1406.1382,0.069279
1407.0700,0.069566
1408.0019,0.069201
1408.9337,0.069118
1409.8655,0.069134
1410.7974,0.069472
1411.7292,0.069850
1412.6610,0.069862
1413.5929,0.069878
1414.5247,0.069572
1415.4565,0.069282
1416.3884,0.069050
1417.3202,0.068682
1418.2520,0.068745
1419.1839,0.069464
1420.1157,0.071555
1421.0476,0.072322
1421.9794,0.070206
1422.9112,0.069103
1423.8431,0.069418
1424.7749,0.070184
1425.7067,0.069905
1426.6386,0.068714
1427.5704,0.067823
1428.5022,0.067402
1429.4341,0.067246
1430.3659,0.067744
1431.2977,0.068168
1432.2296,0.067328
1433.1614,0.066175
1434.0932,0.065548
1435.0251,0.065410
1435.9569,0.065007
1436.8887,0.065710
1437.8206,0.068119
1438.7524,0.067235
1439.6842,0.065276
1440.6161,0.064757
1441.5479,0.064709
1442.4797,0.064557
1443.4116,0.064447
1444.3434,0.064136
1445.2752,0.063759
1446.2071,0.063664
1447.1389,0.064160
1448.0707,0.065283
1449.0026,0.067000
1449.9344,0.067463
1450.8663,0.066670
1451.7981,0.066136
1452.7299,0.066107
1453.6618,0.065958
1454.5936,0.065104
1455.5254,0.064279
1456.4573,0.064175
1457.3891,0.066212
1458.3209,0.067719
1459.2528,0.066045
1460.1846,0.064417
1461.1164,0.062317
1462.0483,0.060291
1462.9801,0.059004
1463.9119,0.057853
1464.8438,0.057164
1465.7756,0.057561
1466.7074,0.057355
1467.6393,0.055825
1468.5711,0.054258
1469.5029,0.053123
1470.4348,0.052300
1471.3666,0.051395
1472.2984,0.051206
1473.2303,0.052548
1474.1621,0.053676
1475.0939,0.053022
1476.0258,0.051730
1476.9576,0.051682
1477.8895,0.052296
1478.8213,0.051653
1479.7531,0.050785
1480.6850,0.050626
1481.6168,0.050876
1482.5486,0.050804
1483.4805,0.050178
1484.4123,0.049478
1485.3441,0.048837
1486.2760,0.048342
1487.2078,0.048189
1488.1396,0.048599
1489.0715,0.048809
1490.0033,0.048745
1490.9351,0.049440
1491.8670,0.049488
1492.7988,0.048295
1493.7306,0.047238
1494.6625,0.046535
1495.5943,0.046047
1496.5261,0.046062
1497.4580,0.046809
1498.3898,0.047003
1499.3216,0.047144
1500.2535,0.047673
1501.1853,0.046814
1502.1171,0.045700
1503.0490,0.045119
1503.9808,0.044431
1504.9127,0.043533
1505.8445,0.043492
1506.7763,0.045563
1507.7082,0.050143
1508.6400,0.051117
1509.5718,0.048703
1510.5037,0.047062
1511.4355,0.046151
1512.3673,0.045890
1513.2992,0.046314
1514.2310,0.045538
1515.1628,0.044539
1516.0947,0.045023
1517.0265,0.045795
1517.9583,0.046906
1518.8902,0.046787
1519.8220,0.044962
1520.7538,0.044209
1521.6857,0.046067
1522.6175,0.049157
1523.5493,0.049039
1524.4812,0.047228
1525.4130,0.046153
1526.3448,0.047540
1527.2767,0.048956
1528.2085,0.048237
1529.1403,0.047798
1530.0722,0.047707
1531.0040,0.047186
1531.9359,0.046638
1532.8677,0.046993
1533.7995,0.048350
1534.7314,0.049427
1535.6632,0.048755
1536.5950,0.047222
1537.5269,0.046347
1538.4587,0.046102
1539.3905,0.046345
1540.3224,0.048609
1541.2542,0.051685
1542.1860,0.051346
1543.1179,0.051533
1544.0497,0.051830
1544.9815,0.051212
1545.9134,0.050744
1546.8452,0.050773
1547.7770,0.050290
1548.7089,0.049793
1549.6407,0.050113
1550.5725,0.051538
1551.5044,0.052854
1552.4362,0.051888
1553.3680,0.050456
1554.2999,0.050150
1555.2317,0.050414
1556.1635,0.050889
1557.0954,0.050741
1558.0272,0.050263
1558.9591,0.053200
1559.8909,0.060957
1560.8227,0.062016
1561.7546,0.059406
1562.6864,0.056893
1563.6182,0.055591
1564.5501,0.055435
1565.4819,0.056060
1566.4137,0.056861
1567.3456,0.056800
1568.2774,0.056603
1569.2092,0.057514
1570.1411,0.059819
1571.0729,0.062397
1572.0047,0.061609
1572.9366,0.059836
1573.8684,0.059576
1574.8002,0.060221
1575.7321,0.061173
1576.6639,0.064205
1577.5957,0.068570
1578.5276,0.067992
1579.4594,0.066185
1580.3912,0.065992
1581.3231,0.066935
1582.2549,0.067875
1583.1867,0.068413
1584.1186,0.068896
1585.0504,0.069751
1585.9822,0.070879
1586.9141,0.071737
1587.8459,0.072990
1588.7778,0.074278
1589.7096,0.075183
1590.6414,0.076047
1591.5733,0.076928
1592.5051,0.078006
1593.4369,0.079428
1594.3688,0.080926
1595.3006,0.082413
1596.2324,0.083914
1597.1643,0.085506
